
# From lspdd.org
# 
# Name: INC Sylvania A19 Domestique
# Indice spectral Valeur 
# MSI 1.51 
# SLI 2.30 
# IPI 10.83 
# Pourcentage de bleu 3.9 
# Caractéristique Valeur 
# CCT calculée (K) 13621 
# CCT du fabricant (K) 13000 
# Tension (V) 120 
# Puissance (W) 40.0 
# Efficacité lumineuse (Lum/W) ND 
#
# Image: '/app/system/img_2s/2724/medium_image2.jpg?1612236420'
# Image: '/app/system/img_1s/2724/medium_image1.jpg?1612236416'
# 

  273.00  0.0000E+000  
  273.50  0.0000E+000  
  274.00  0.0000E+000  
  274.50  0.0000E+000  
  275.00  0.0000E+000  
  275.50  0.0000E+000  
  276.00  0.0000E+000  
  276.50  0.0000E+000  
  277.00  0.0000E+000  
  277.50  0.0000E+000  
  278.00  0.0000E+000  
  278.50  0.0000E+000  
  279.00  0.0000E+000  
  279.50  0.0000E+000  
  280.00  0.0000E+000  
  280.50  0.0000E+000  
  281.00  0.0000E+000  
  281.50  0.0000E+000  
  282.00  0.0000E+000  
  282.50  0.0000E+000  
  283.00  0.0000E+000  
  283.50  0.0000E+000  
  284.00  0.0000E+000  
  284.50  0.0000E+000  
  285.00  0.0000E+000  
  285.50  0.0000E+000  
  286.00  0.0000E+000  
  286.50  0.0000E+000  
  287.00  0.0000E+000  
  287.50  0.0000E+000  
  288.00  0.0000E+000  
  288.50  0.0000E+000  
  289.00  0.0000E+000  
  289.50  0.0000E+000  
  290.00  0.0000E+000  
  290.50  0.0000E+000  
  291.00  0.0000E+000  
  291.50  0.0000E+000  
  292.00  0.0000E+000  
  292.50  0.0000E+000  
  293.00  0.0000E+000  
  293.50  0.0000E+000  
  294.00  0.0000E+000  
  294.50  0.0000E+000  
  295.00  0.0000E+000  
  295.50  0.0000E+000  
  296.00  0.0000E+000  
  296.50  0.0000E+000  
  297.00  0.0000E+000  
  297.50  0.0000E+000  
  298.00  0.0000E+000  
  298.50  0.0000E+000  
  299.00  0.0000E+000  
  299.50  0.0000E+000  
  300.00  0.0000E+000  
  300.50  0.0000E+000  
  301.00  0.0000E+000  
  301.50  0.0000E+000  
  302.00  0.0000E+000  
  302.50  2.3936E-005  
  303.00  7.8947E-005  
  303.50  0.0000E+000  
  304.00  0.0000E+000  
  304.50  0.0000E+000  
  305.00  0.0000E+000  
  305.50  0.0000E+000  
  306.00  1.2645E-004  
  306.50  2.8731E-005  
  307.00  0.0000E+000  
  307.50  0.0000E+000  
  308.00  0.0000E+000  
  308.50  0.0000E+000  
  309.00  0.0000E+000  
  309.50  0.0000E+000  
  310.00  0.0000E+000  
  310.50  0.0000E+000  
  311.00  0.0000E+000  
  311.50  0.0000E+000  
  312.00  0.0000E+000  
  312.50  0.0000E+000  
  313.00  0.0000E+000  
  313.50  0.0000E+000  
  314.00  0.0000E+000  
  314.50  0.0000E+000  
  315.00  0.0000E+000  
  315.50  0.0000E+000  
  316.00  0.0000E+000  
  316.50  0.0000E+000  
  317.00  0.0000E+000  
  317.50  0.0000E+000  
  318.00  0.0000E+000  
  318.50  0.0000E+000  
  319.00  0.0000E+000  
  319.50  0.0000E+000  
  320.00  0.0000E+000  
  320.50  0.0000E+000  
  321.00  0.0000E+000  
  321.50  0.0000E+000  
  322.00  0.0000E+000  
  322.50  0.0000E+000  
  323.00  0.0000E+000  
  323.50  0.0000E+000  
  324.00  0.0000E+000  
  324.50  0.0000E+000  
  325.00  0.0000E+000  
  325.50  0.0000E+000  
  326.00  0.0000E+000  
  326.50  0.0000E+000  
  327.00  0.0000E+000  
  327.50  0.0000E+000  
  328.00  0.0000E+000  
  328.50  0.0000E+000  
  329.00  0.0000E+000  
  329.50  0.0000E+000  
  330.00  0.0000E+000  
  330.50  0.0000E+000  
  331.00  0.0000E+000  
  331.50  0.0000E+000  
  332.00  0.0000E+000  
  332.50  0.0000E+000  
  333.00  0.0000E+000  
  333.50  0.0000E+000  
  334.00  0.0000E+000  
  334.50  0.0000E+000  
  335.00  0.0000E+000  
  335.50  0.0000E+000  
  336.00  0.0000E+000  
  336.50  0.0000E+000  
  337.00  0.0000E+000  
  337.50  0.0000E+000  
  338.00  0.0000E+000  
  338.50  0.0000E+000  
  339.00  0.0000E+000  
  339.50  0.0000E+000  
  340.00  0.0000E+000  
  340.50  0.0000E+000  
  341.00  0.0000E+000  
  341.50  0.0000E+000  
  342.00  0.0000E+000  
  342.50  0.0000E+000  
  343.00  0.0000E+000  
  343.50  0.0000E+000  
  344.00  0.0000E+000  
  344.50  0.0000E+000  
  345.00  0.0000E+000  
  345.50  0.0000E+000  
  346.00  0.0000E+000  
  346.50  0.0000E+000  
  347.00  0.0000E+000  
  347.50  0.0000E+000  
  348.00  0.0000E+000  
  348.50  0.0000E+000  
  349.00  0.0000E+000  
  349.50  0.0000E+000  
  350.00  0.0000E+000  
  350.50  0.0000E+000  
  351.00  0.0000E+000  
  351.50  0.0000E+000  
  352.00  0.0000E+000  
  352.50  0.0000E+000  
  353.00  0.0000E+000  
  353.50  0.0000E+000  
  354.00  0.0000E+000  
  354.50  0.0000E+000  
  355.00  0.0000E+000  
  355.50  0.0000E+000  
  356.00  0.0000E+000  
  356.50  0.0000E+000  
  357.00  0.0000E+000  
  357.50  0.0000E+000  
  358.00  0.0000E+000  
  358.50  0.0000E+000  
  359.00  0.0000E+000  
  359.50  0.0000E+000  
  360.00  0.0000E+000  
  360.50  0.0000E+000  
  361.00  0.0000E+000  
  361.50  0.0000E+000  
  362.00  0.0000E+000  
  362.50  0.0000E+000  
  363.00  0.0000E+000  
  363.50  0.0000E+000  
  364.00  0.0000E+000  
  364.50  0.0000E+000  
  365.00  0.0000E+000  
  365.50  0.0000E+000  
  366.00  0.0000E+000  
  366.50  0.0000E+000  
  367.00  0.0000E+000  
  367.50  0.0000E+000  
  368.00  0.0000E+000  
  368.50  0.0000E+000  
  369.00  0.0000E+000  
  369.50  0.0000E+000  
  370.00  0.0000E+000  
  370.50  0.0000E+000  
  371.00  0.0000E+000  
  371.50  0.0000E+000  
  372.00  0.0000E+000  
  372.50  0.0000E+000  
  373.00  0.0000E+000  
  373.50  0.0000E+000  
  374.00  0.0000E+000  
  374.50  0.0000E+000  
  375.00  0.0000E+000  
  375.50  0.0000E+000  
  376.00  0.0000E+000  
  376.50  0.0000E+000  
  377.00  0.0000E+000  
  377.50  0.0000E+000  
  378.00  0.0000E+000  
  378.50  0.0000E+000  
  379.00  0.0000E+000  
  379.50  0.0000E+000  
  380.00  0.0000E+000  
  380.50  0.0000E+000  
  381.00  0.0000E+000  
  381.50  0.0000E+000  
  382.00  0.0000E+000  
  382.50  0.0000E+000  
  383.00  0.0000E+000  
  383.50  0.0000E+000  
  384.00  0.0000E+000  
  384.50  0.0000E+000  
  385.00  0.0000E+000  
  385.50  0.0000E+000  
  386.00  0.0000E+000  
  386.50  0.0000E+000  
  387.00  0.0000E+000  
  387.50  0.0000E+000  
  388.00  0.0000E+000  
  388.50  0.0000E+000  
  389.00  0.0000E+000  
  389.50  0.0000E+000  
  390.00  0.0000E+000  
  390.50  0.0000E+000  
  391.00  0.0000E+000  
  391.50  0.0000E+000  
  392.00  0.0000E+000  
  392.50  0.0000E+000  
  393.00  0.0000E+000  
  393.50  0.0000E+000  
  394.00  0.0000E+000  
  394.50  0.0000E+000  
  395.00  0.0000E+000  
  395.50  0.0000E+000  
  396.00  0.0000E+000  
  396.50  0.0000E+000  
  397.00  0.0000E+000  
  397.50  0.0000E+000  
  398.00  0.0000E+000  
  398.50  0.0000E+000  
  399.00  0.0000E+000  
  399.50  0.0000E+000  
  400.00  0.0000E+000  
  400.50  0.0000E+000  
  401.00  0.0000E+000  
  401.50  0.0000E+000  
  402.00  0.0000E+000  
  402.50  0.0000E+000  
  403.00  0.0000E+000  
  403.50  0.0000E+000  
  404.00  0.0000E+000  
  404.50  0.0000E+000  
  405.00  0.0000E+000  
  405.50  0.0000E+000  
  406.00  0.0000E+000  
  406.50  0.0000E+000  
  407.00  0.0000E+000  
  407.50  0.0000E+000  
  408.00  0.0000E+000  
  408.50  0.0000E+000  
  409.00  0.0000E+000  
  409.50  0.0000E+000  
  410.00  0.0000E+000  
  410.50  0.0000E+000  
  411.00  0.0000E+000  
  411.50  0.0000E+000  
  412.00  0.0000E+000  
  412.50  0.0000E+000  
  413.00  0.0000E+000  
  413.50  0.0000E+000  
  414.00  0.0000E+000  
  414.50  0.0000E+000  
  415.00  0.0000E+000  
  415.50  0.0000E+000  
  416.00  0.0000E+000  
  416.50  0.0000E+000  
  417.00  0.0000E+000  
  417.50  0.0000E+000  
  418.00  0.0000E+000  
  418.50  0.0000E+000  
  419.00  0.0000E+000  
  419.50  0.0000E+000  
  420.00  0.0000E+000  
  420.50  5.8925E-006  
  421.00  1.6125E-004  
  421.50  1.6745E-005  
  422.00  0.0000E+000  
  422.50  0.0000E+000  
  423.00  0.0000E+000  
  423.50  0.0000E+000  
  424.00  0.0000E+000  
  424.50  0.0000E+000  
  425.00  0.0000E+000  
  425.50  0.0000E+000  
  426.00  0.0000E+000  
  426.50  0.0000E+000  
  427.00  0.0000E+000  
  427.50  0.0000E+000  
  428.00  0.0000E+000  
  428.50  0.0000E+000  
  429.00  0.0000E+000  
  429.50  9.6204E-005  
  430.00  1.2023E-004  
  430.50  0.0000E+000  
  431.00  0.0000E+000  
  431.50  0.0000E+000  
  432.00  0.0000E+000  
  432.50  0.0000E+000  
  433.00  0.0000E+000  
  433.50  0.0000E+000  
  434.00  0.0000E+000  
  434.50  0.0000E+000  
  435.00  0.0000E+000  
  435.50  3.0170E-005  
  436.00  3.9078E-004  
  436.50  6.5083E-004  
  437.00  6.7255E-004  
  437.50  3.8524E-004  
  438.00  3.7916E-004  
  438.50  1.0803E-004  
  439.00  1.1830E-004  
  439.50  2.3008E-004  
  440.00  4.2649E-004  
  440.50  3.0198E-004  
  441.00  2.0240E-004  
  441.50  1.9554E-004  
  442.00  1.5653E-004  
  442.50  2.1550E-004  
  443.00  1.9113E-004  
  443.50  4.7782E-005  
  444.00  0.0000E+000  
  444.50  0.0000E+000  
  445.00  1.8974E-004  
  445.50  3.5587E-004  
  446.00  4.2159E-004  
  446.50  2.9263E-004  
  447.00  1.2244E-004  
  447.50  0.0000E+000  
  448.00  0.0000E+000  
  448.50  4.5869E-005  
  449.00  4.2285E-004  
  449.50  5.8153E-004  
  450.00  3.7215E-004  
  450.50  9.2174E-005  
  451.00  6.8249E-006  
  451.50  3.8929E-004  
  452.00  9.0116E-004  
  452.50  1.2745E-003  
  453.00  1.2746E-003  
  453.50  1.1123E-003  
  454.00  9.3915E-004  
  454.50  1.0082E-003  
  455.00  1.0503E-003  
  455.50  9.7722E-004  
  456.00  7.0472E-004  
  456.50  4.8923E-004  
  457.00  3.8924E-004  
  457.50  6.0521E-004  
  458.00  6.1477E-004  
  458.50  6.6894E-004  
  459.00  7.3540E-004  
  459.50  1.0360E-003  
  460.00  1.3683E-003  
  460.50  1.3415E-003  
  461.00  1.0459E-003  
  461.50  8.1717E-004  
  462.00  6.4931E-004  
  462.50  9.8018E-004  
  463.00  1.2503E-003  
  463.50  1.5322E-003  
  464.00  1.5510E-003  
  464.50  1.1977E-003  
  465.00  1.0671E-003  
  465.50  1.2109E-003  
  466.00  1.5916E-003  
  466.50  1.9885E-003  
  467.00  2.0975E-003  
  467.50  2.1326E-003  
  468.00  1.9691E-003  
  468.50  1.8976E-003  
  469.00  1.8383E-003  
  469.50  1.8532E-003  
  470.00  1.8818E-003  
  470.50  1.9136E-003  
  471.00  1.8540E-003  
  471.50  1.8540E-003  
  472.00  1.7600E-003  
  472.50  1.9405E-003  
  473.00  2.0464E-003  
  473.50  2.2837E-003  
  474.00  2.3662E-003  
  474.50  2.2647E-003  
  475.00  2.1864E-003  
  475.50  2.0214E-003  
  476.00  2.0761E-003  
  476.50  2.2749E-003  
  477.00  2.3397E-003  
  477.50  2.3379E-003  
  478.00  2.2644E-003  
  478.50  2.2254E-003  
  479.00  2.3329E-003  
  479.50  2.3984E-003  
  480.00  2.4169E-003  
  480.50  2.4039E-003  
  481.00  2.3515E-003  
  481.50  2.3732E-003  
  482.00  2.2752E-003  
  482.50  2.3209E-003  
  483.00  2.3961E-003  
  483.50  2.4390E-003  
  484.00  2.5721E-003  
  484.50  2.6256E-003  
  485.00  2.6118E-003  
  485.50  2.6849E-003  
  486.00  2.7100E-003  
  486.50  2.8287E-003  
  487.00  2.9268E-003  
  487.50  3.0326E-003  
  488.00  3.2475E-003  
  488.50  3.4065E-003  
  489.00  3.5317E-003  
  489.50  3.4830E-003  
  490.00  3.3736E-003  
  490.50  3.4162E-003  
  491.00  3.4446E-003  
  491.50  3.5503E-003  
  492.00  3.6350E-003  
  492.50  3.5833E-003  
  493.00  3.5663E-003  
  493.50  3.6068E-003  
  494.00  3.6739E-003  
  494.50  3.7165E-003  
  495.00  3.7230E-003  
  495.50  3.7800E-003  
  496.00  3.7888E-003  
  496.50  3.8755E-003  
  497.00  3.8151E-003  
  497.50  3.6854E-003  
  498.00  3.6904E-003  
  498.50  3.5903E-003  
  499.00  3.6469E-003  
  499.50  3.6852E-003  
  500.00  3.7466E-003  
  500.50  3.8211E-003  
  501.00  3.8968E-003  
  501.50  3.8609E-003  
  502.00  3.8389E-003  
  502.50  3.6769E-003  
  503.00  3.5213E-003  
  503.50  3.3854E-003  
  504.00  3.2240E-003  
  504.50  3.0797E-003  
  505.00  3.1331E-003  
  505.50  3.2361E-003  
  506.00  3.2663E-003  
  506.50  3.0810E-003  
  507.00  2.9600E-003  
  507.50  2.8464E-003  
  508.00  2.9136E-003  
  508.50  2.8737E-003  
  509.00  2.7996E-003  
  509.50  2.7607E-003  
  510.00  2.5974E-003  
  510.50  2.3651E-003  
  511.00  2.2084E-003  
  511.50  2.2258E-003  
  512.00  2.2785E-003  
  512.50  2.1948E-003  
  513.00  2.0029E-003  
  513.50  1.8509E-003  
  514.00  1.8083E-003  
  514.50  1.8165E-003  
  515.00  1.7812E-003  
  515.50  1.6993E-003  
  516.00  1.6375E-003  
  516.50  1.5741E-003  
  517.00  1.5253E-003  
  517.50  1.4210E-003  
  518.00  1.3916E-003  
  518.50  1.4061E-003  
  519.00  1.4387E-003  
  519.50  1.2909E-003  
  520.00  1.1104E-003  
  520.50  9.1119E-004  
  521.00  7.7359E-004  
  521.50  7.8991E-004  
  522.00  8.5305E-004  
  522.50  9.1924E-004  
  523.00  9.0286E-004  
  523.50  8.6994E-004  
  524.00  8.2372E-004  
  524.50  7.4882E-004  
  525.00  5.7697E-004  
  525.50  4.0281E-004  
  526.00  4.4275E-004  
  526.50  5.5784E-004  
  527.00  7.5505E-004  
  527.50  7.0983E-004  
  528.00  5.9144E-004  
  528.50  3.0684E-004  
  529.00  1.4628E-004  
  529.50  1.7510E-004  
  530.00  3.6909E-004  
  530.50  5.0136E-004  
  531.00  4.4348E-004  
  531.50  4.1464E-004  
  532.00  3.4699E-004  
  532.50  3.4480E-004  
  533.00  2.5129E-004  
  533.50  1.0013E-004  
  534.00  0.0000E+000  
  534.50  0.0000E+000  
  535.00  0.0000E+000  
  535.50  0.0000E+000  
  536.00  5.7106E-006  
  536.50  6.0988E-005  
  537.00  1.6364E-004  
  537.50  8.0824E-005  
  538.00  0.0000E+000  
  538.50  0.0000E+000  
  539.00  0.0000E+000  
  539.50  0.0000E+000  
  540.00  0.0000E+000  
  540.50  0.0000E+000  
  541.00  5.7067E-005  
  541.50  1.3796E-004  
  542.00  1.1572E-004  
  542.50  3.5802E-005  
  543.00  0.0000E+000  
  543.50  0.0000E+000  
  544.00  0.0000E+000  
  544.50  1.0766E-004  
  545.00  1.7855E-004  
  545.50  8.3657E-005  
  546.00  0.0000E+000  
  546.50  5.9907E-007  
  547.00  7.9067E-005  
  547.50  1.5745E-004  
  548.00  5.8568E-005  
  548.50  0.0000E+000  
  549.00  0.0000E+000  
  549.50  1.8977E-005  
  550.00  8.4304E-005  
  550.50  6.8093E-005  
  551.00  2.5062E-006  
  551.50  0.0000E+000  
  552.00  0.0000E+000  
  552.50  0.0000E+000  
  553.00  0.0000E+000  
  553.50  0.0000E+000  
  554.00  0.0000E+000  
  554.50  0.0000E+000  
  555.00  0.0000E+000  
  555.50  0.0000E+000  
  556.00  4.0634E-006  
  556.50  1.2457E-004  
  557.00  1.5823E-004  
  557.50  2.5964E-005  
  558.00  0.0000E+000  
  558.50  0.0000E+000  
  559.00  0.0000E+000  
  559.50  0.0000E+000  
  560.00  4.4814E-005  
  560.50  1.0896E-005  
  561.00  0.0000E+000  
  561.50  0.0000E+000  
  562.00  0.0000E+000  
  562.50  0.0000E+000  
  563.00  0.0000E+000  
  563.50  0.0000E+000  
  564.00  0.0000E+000  
  564.50  0.0000E+000  
  565.00  0.0000E+000  
  565.50  0.0000E+000  
  566.00  0.0000E+000  
  566.50  0.0000E+000  
  567.00  0.0000E+000  
  567.50  0.0000E+000  
  568.00  0.0000E+000  
  568.50  0.0000E+000  
  569.00  0.0000E+000  
  569.50  0.0000E+000  
  570.00  0.0000E+000  
  570.50  0.0000E+000  
  571.00  0.0000E+000  
  571.50  0.0000E+000  
  572.00  0.0000E+000  
  572.50  0.0000E+000  
  573.00  0.0000E+000  
  573.50  0.0000E+000  
  574.00  0.0000E+000  
  574.50  0.0000E+000  
  575.00  0.0000E+000  
  575.50  0.0000E+000  
  576.00  0.0000E+000  
  576.50  0.0000E+000  
  577.00  0.0000E+000  
  577.50  0.0000E+000  
  578.00  0.0000E+000  
  578.50  0.0000E+000  
  579.00  0.0000E+000  
  579.50  0.0000E+000  
  580.00  0.0000E+000  
  580.50  0.0000E+000  
  581.00  0.0000E+000  
  581.50  0.0000E+000  
  582.00  0.0000E+000  
  582.50  0.0000E+000  
  583.00  0.0000E+000  
  583.50  0.0000E+000  
  584.00  0.0000E+000  
  584.50  0.0000E+000  
  585.00  0.0000E+000  
  585.50  0.0000E+000  
  586.00  0.0000E+000  
  586.50  0.0000E+000  
  587.00  0.0000E+000  
  587.50  0.0000E+000  
  588.00  0.0000E+000  
  588.50  0.0000E+000  
  589.00  0.0000E+000  
  589.50  7.5148E-006  
  590.00  1.0429E-004  
  590.50  7.1662E-007  
  591.00  0.0000E+000  
  591.50  0.0000E+000  
  592.00  0.0000E+000  
  592.50  0.0000E+000  
  593.00  9.6841E-006  
  593.50  1.7663E-004  
  594.00  1.2572E-004  
  594.50  0.0000E+000  
  595.00  0.0000E+000  
  595.50  0.0000E+000  
  596.00  0.0000E+000  
  596.50  0.0000E+000  
  597.00  0.0000E+000  
  597.50  0.0000E+000  
  598.00  0.0000E+000  
  598.50  0.0000E+000  
  599.00  0.0000E+000  
  599.50  0.0000E+000  
  600.00  0.0000E+000  
  600.50  0.0000E+000  
  601.00  0.0000E+000  
  601.50  0.0000E+000  
  602.00  0.0000E+000  
  602.50  0.0000E+000  
  603.00  0.0000E+000  
  603.50  0.0000E+000  
  604.00  0.0000E+000  
  604.50  0.0000E+000  
  605.00  0.0000E+000  
  605.50  0.0000E+000  
  606.00  0.0000E+000  
  606.50  0.0000E+000  
  607.00  0.0000E+000  
  607.50  0.0000E+000  
  608.00  0.0000E+000  
  608.50  0.0000E+000  
  609.00  0.0000E+000  
  609.50  0.0000E+000  
  610.00  0.0000E+000  
  610.50  0.0000E+000  
  611.00  0.0000E+000  
  611.50  0.0000E+000  
  612.00  0.0000E+000  
  612.50  0.0000E+000  
  613.00  0.0000E+000  
  613.50  0.0000E+000  
  614.00  0.0000E+000  
  614.50  0.0000E+000  
  615.00  0.0000E+000  
  615.50  0.0000E+000  
  616.00  0.0000E+000  
  616.50  0.0000E+000  
  617.00  0.0000E+000  
  617.50  0.0000E+000  
  618.00  0.0000E+000  
  618.50  0.0000E+000  
  619.00  0.0000E+000  
  619.50  0.0000E+000  
  620.00  0.0000E+000  
  620.50  0.0000E+000  
  621.00  0.0000E+000  
  621.50  0.0000E+000  
  622.00  0.0000E+000  
  622.50  0.0000E+000  
  623.00  0.0000E+000  
  623.50  3.6349E-005  
  624.00  5.1662E-005  
  624.50  0.0000E+000  
  625.00  0.0000E+000  
  625.50  0.0000E+000  
  626.00  0.0000E+000  
  626.50  0.0000E+000  
  627.00  0.0000E+000  
  627.50  0.0000E+000  
  628.00  0.0000E+000  
  628.50  0.0000E+000  
  629.00  0.0000E+000  
  629.50  0.0000E+000  
  630.00  0.0000E+000  
  630.50  0.0000E+000  
  631.00  0.0000E+000  
  631.50  0.0000E+000  
  632.00  2.1951E-005  
  632.50  1.9833E-004  
  633.00  1.8654E-004  
  633.50  0.0000E+000  
  634.00  0.0000E+000  
  634.50  0.0000E+000  
  635.00  0.0000E+000  
  635.50  0.0000E+000  
  636.00  3.7910E-005  
  636.50  1.4611E-004  
  637.00  1.5156E-004  
  637.50  1.6534E-005  
  638.00  0.0000E+000  
  638.50  0.0000E+000  
  639.00  0.0000E+000  
  639.50  0.0000E+000  
  640.00  0.0000E+000  
  640.50  0.0000E+000  
  641.00  0.0000E+000  
  641.50  0.0000E+000  
  642.00  3.8643E-005  
  642.50  1.0545E-004  
  643.00  3.6371E-004  
  643.50  3.0697E-004  
  644.00  2.2624E-004  
  644.50  4.2872E-005  
  645.00  1.0874E-004  
  645.50  1.2697E-004  
  646.00  2.2363E-005  
  646.50  0.0000E+000  
  647.00  0.0000E+000  
  647.50  0.0000E+000  
  648.00  0.0000E+000  
  648.50  7.7874E-006  
  649.00  1.2766E-004  
  649.50  1.5564E-004  
  650.00  1.5065E-004  
  650.50  4.3927E-006  
  651.00  0.0000E+000  
  651.50  0.0000E+000  
  652.00  0.0000E+000  
  652.50  5.0226E-005  
  653.00  2.0319E-004  
  653.50  4.3532E-004  
  654.00  4.0242E-004  
  654.50  3.3227E-004  
  655.00  2.5177E-004  
  655.50  4.2650E-004  
  656.00  5.7254E-004  
  656.50  6.0519E-004  
  657.00  5.6405E-004  
  657.50  7.1135E-004  
  658.00  1.0682E-003  
  658.50  1.1962E-003  
  659.00  9.3810E-004  
  659.50  8.2078E-004  
  660.00  7.5728E-004  
  660.50  8.9817E-004  
  661.00  9.9339E-004  
  661.50  1.4050E-003  
  662.00  1.6475E-003  
  662.50  1.8775E-003  
  663.00  2.0710E-003  
  663.50  2.5607E-003  
  664.00  2.8364E-003  
  664.50  2.7075E-003  
  665.00  2.5216E-003  
  665.50  2.3137E-003  
  666.00  2.4032E-003  
  666.50  2.8349E-003  
  667.00  3.2720E-003  
  667.50  3.7839E-003  
  668.00  3.7604E-003  
  668.50  3.7213E-003  
  669.00  3.8812E-003  
  669.50  4.0709E-003  
  670.00  4.4854E-003  
  670.50  4.7187E-003  
  671.00  5.2968E-003  
  671.50  5.8661E-003  
  672.00  6.3747E-003  
  672.50  6.6069E-003  
  673.00  6.8569E-003  
  673.50  7.3137E-003  
  674.00  7.5862E-003  
  674.50  8.0869E-003  
  675.00  8.5124E-003  
  675.50  9.4065E-003  
  676.00  9.8554E-003  
  676.50  1.0075E-002  
  677.00  1.0574E-002  
  677.50  1.1408E-002  
  678.00  1.2324E-002  
  678.50  1.2900E-002  
  679.00  1.3279E-002  
  679.50  1.3733E-002  
  680.00  1.4345E-002  
