
# From lspdd.org
# 
# Name: DEL GE Refresh Domestique
# Indice spectral Valeur 
# MSI 0.60 
# SLI 0.80 
# IPI 0.76 
# Pourcentage de bleu 35.8 
# Caractéristique Valeur 
# CCT calculée (K) 4759 
# CCT du fabricant (K) 5000 
# Tension (V) 120 
# Puissance (W) 8.5 
# Efficacité lumineuse (Lum/W) 94.0 
#
# Image: '/app/system/img_1s/2742/medium_image1.JPG?1612236500'
# 

  273.00  0.0000E+000  
  273.50  0.0000E+000  
  274.00  0.0000E+000  
  274.50  0.0000E+000  
  275.00  0.0000E+000  
  275.50  0.0000E+000  
  276.00  0.0000E+000  
  276.50  0.0000E+000  
  277.00  0.0000E+000  
  277.50  0.0000E+000  
  278.00  0.0000E+000  
  278.50  0.0000E+000  
  279.00  0.0000E+000  
  279.50  0.0000E+000  
  280.00  0.0000E+000  
  280.50  0.0000E+000  
  281.00  0.0000E+000  
  281.50  0.0000E+000  
  282.00  0.0000E+000  
  282.50  0.0000E+000  
  283.00  0.0000E+000  
  283.50  0.0000E+000  
  284.00  0.0000E+000  
  284.50  0.0000E+000  
  285.00  0.0000E+000  
  285.50  0.0000E+000  
  286.00  0.0000E+000  
  286.50  0.0000E+000  
  287.00  0.0000E+000  
  287.50  0.0000E+000  
  288.00  0.0000E+000  
  288.50  0.0000E+000  
  289.00  0.0000E+000  
  289.50  0.0000E+000  
  290.00  0.0000E+000  
  290.50  0.0000E+000  
  291.00  0.0000E+000  
  291.50  0.0000E+000  
  292.00  0.0000E+000  
  292.50  0.0000E+000  
  293.00  0.0000E+000  
  293.50  0.0000E+000  
  294.00  0.0000E+000  
  294.50  0.0000E+000  
  295.00  0.0000E+000  
  295.50  0.0000E+000  
  296.00  0.0000E+000  
  296.50  0.0000E+000  
  297.00  0.0000E+000  
  297.50  0.0000E+000  
  298.00  0.0000E+000  
  298.50  0.0000E+000  
  299.00  0.0000E+000  
  299.50  0.0000E+000  
  300.00  0.0000E+000  
  300.50  0.0000E+000  
  301.00  0.0000E+000  
  301.50  0.0000E+000  
  302.00  0.0000E+000  
  302.50  0.0000E+000  
  303.00  1.5219E-004  
  303.50  1.1179E-004  
  304.00  0.0000E+000  
  304.50  0.0000E+000  
  305.00  0.0000E+000  
  305.50  0.0000E+000  
  306.00  0.0000E+000  
  306.50  0.0000E+000  
  307.00  0.0000E+000  
  307.50  0.0000E+000  
  308.00  0.0000E+000  
  308.50  3.1318E-005  
  309.00  1.5281E-004  
  309.50  1.7159E-004  
  310.00  1.4586E-004  
  310.50  1.2626E-004  
  311.00  1.0402E-004  
  311.50  4.1621E-005  
  312.00  4.5453E-006  
  312.50  1.6004E-004  
  313.00  3.6502E-004  
  313.50  5.7003E-004  
  314.00  5.8438E-004  
  314.50  4.1684E-004  
  315.00  3.4244E-004  
  315.50  2.5301E-004  
  316.00  1.6373E-004  
  316.50  2.4225E-004  
  317.00  2.7267E-004  
  317.50  2.1135E-004  
  318.00  1.8396E-004  
  318.50  2.6213E-005  
  319.00  0.0000E+000  
  319.50  0.0000E+000  
  320.00  0.0000E+000  
  320.50  1.1485E-004  
  321.00  1.8797E-004  
  321.50  1.7124E-004  
  322.00  2.5816E-004  
  322.50  4.0555E-004  
  323.00  6.7633E-004  
  323.50  8.2053E-004  
  324.00  7.2674E-004  
  324.50  3.5716E-004  
  325.00  2.7041E-005  
  325.50  0.0000E+000  
  326.00  0.0000E+000  
  326.50  0.0000E+000  
  327.00  0.0000E+000  
  327.50  1.5272E-004  
  328.00  3.1712E-004  
  328.50  3.4170E-004  
  329.00  4.4785E-004  
  329.50  6.0889E-004  
  330.00  9.8191E-004  
  330.50  1.1821E-003  
  331.00  9.7846E-004  
  331.50  6.7106E-004  
  332.00  3.2801E-004  
  332.50  1.3088E-004  
  333.00  6.8951E-005  
  333.50  0.0000E+000  
  334.00  0.0000E+000  
  334.50  0.0000E+000  
  335.00  0.0000E+000  
  335.50  2.0641E-005  
  336.00  1.4375E-004  
  336.50  2.9203E-004  
  337.00  1.6337E-004  
  337.50  2.0496E-005  
  338.00  0.0000E+000  
  338.50  0.0000E+000  
  339.00  0.0000E+000  
  339.50  4.9975E-005  
  340.00  3.3363E-004  
  340.50  6.5897E-004  
  341.00  6.9587E-004  
  341.50  4.3235E-004  
  342.00  2.3954E-004  
  342.50  5.1787E-005  
  343.00  0.0000E+000  
  343.50  2.1846E-004  
  344.00  3.8451E-004  
  344.50  2.0559E-004  
  345.00  5.5698E-006  
  345.50  0.0000E+000  
  346.00  0.0000E+000  
  346.50  0.0000E+000  
  347.00  0.0000E+000  
  347.50  0.0000E+000  
  348.00  0.0000E+000  
  348.50  5.2267E-006  
  349.00  5.9199E-006  
  349.50  0.0000E+000  
  350.00  0.0000E+000  
  350.50  0.0000E+000  
  351.00  3.7385E-008  
  351.50  4.0903E-005  
  352.00  9.9739E-005  
  352.50  0.0000E+000  
  353.00  0.0000E+000  
  353.50  0.0000E+000  
  354.00  0.0000E+000  
  354.50  0.0000E+000  
  355.00  0.0000E+000  
  355.50  4.5746E-005  
  356.00  1.7663E-004  
  356.50  3.4104E-004  
  357.00  5.8689E-004  
  357.50  5.6795E-004  
  358.00  2.8642E-004  
  358.50  6.9958E-005  
  359.00  0.0000E+000  
  359.50  0.0000E+000  
  360.00  0.0000E+000  
  360.50  0.0000E+000  
  361.00  0.0000E+000  
  361.50  4.3905E-007  
  362.00  9.6421E-005  
  362.50  2.0193E-004  
  363.00  3.2393E-004  
  363.50  4.9222E-004  
  364.00  5.2241E-004  
  364.50  4.5625E-004  
  365.00  4.3646E-004  
  365.50  5.1008E-004  
  366.00  8.5307E-004  
  366.50  9.9768E-004  
  367.00  1.0418E-003  
  367.50  9.6146E-004  
  368.00  8.3045E-004  
  368.50  8.8199E-004  
  369.00  7.5777E-004  
  369.50  7.7857E-004  
  370.00  8.0803E-004  
  370.50  8.2607E-004  
  371.00  8.3609E-004  
  371.50  5.5258E-004  
  372.00  3.4733E-004  
  372.50  8.6817E-005  
  373.00  1.3016E-004  
  373.50  2.3247E-004  
  374.00  3.4367E-004  
  374.50  5.7378E-004  
  375.00  7.3328E-004  
  375.50  6.5023E-004  
  376.00  6.8195E-004  
  376.50  6.2232E-004  
  377.00  5.1560E-004  
  377.50  6.1140E-004  
  378.00  7.2661E-004  
  378.50  8.1481E-004  
  379.00  9.3651E-004  
  379.50  1.0749E-003  
  380.00  9.1447E-004  
  380.50  8.9035E-004  
  381.00  6.8956E-004  
  381.50  4.1567E-004  
  382.00  2.7516E-004  
  382.50  0.0000E+000  
  383.00  0.0000E+000  
  383.50  0.0000E+000  
  384.00  0.0000E+000  
  384.50  0.0000E+000  
  385.00  1.7676E-005  
  385.50  4.3881E-004  
  386.00  7.7417E-004  
  386.50  1.1214E-003  
  387.00  1.1273E-003  
  387.50  8.0739E-004  
  388.00  2.7859E-004  
  388.50  0.0000E+000  
  389.00  0.0000E+000  
  389.50  5.9789E-005  
  390.00  3.3829E-004  
  390.50  6.0416E-004  
  391.00  4.9050E-004  
  391.50  2.4300E-004  
  392.00  0.0000E+000  
  392.50  3.6247E-005  
  393.00  2.4388E-004  
  393.50  5.3507E-004  
  394.00  7.3164E-004  
  394.50  7.4314E-004  
  395.00  6.3637E-004  
  395.50  6.0014E-004  
  396.00  5.3634E-004  
  396.50  4.6678E-004  
  397.00  4.0068E-004  
  397.50  1.6586E-004  
  398.00  7.1942E-005  
  398.50  5.1547E-005  
  399.00  2.5705E-004  
  399.50  6.1144E-004  
  400.00  9.0968E-004  
  400.50  1.0351E-003  
  401.00  1.0374E-003  
  401.50  9.6396E-004  
  402.00  1.2408E-003  
  402.50  1.4499E-003  
  403.00  1.3822E-003  
  403.50  1.4089E-003  
  404.00  1.2042E-003  
  404.50  1.1455E-003  
  405.00  1.0916E-003  
  405.50  9.2718E-004  
  406.00  9.0206E-004  
  406.50  8.9890E-004  
  407.00  1.1247E-003  
  407.50  1.2857E-003  
  408.00  1.6307E-003  
  408.50  1.8201E-003  
  409.00  1.8782E-003  
  409.50  1.7814E-003  
  410.00  1.8901E-003  
  410.50  2.0791E-003  
  411.00  2.3314E-003  
  411.50  2.4206E-003  
  412.00  2.6021E-003  
  412.50  2.6917E-003  
  413.00  2.9173E-003  
  413.50  3.1217E-003  
  414.00  2.9338E-003  
  414.50  2.8774E-003  
  415.00  2.8389E-003  
  415.50  3.2435E-003  
  416.00  3.7249E-003  
  416.50  3.9939E-003  
  417.00  4.1093E-003  
  417.50  4.2123E-003  
  418.00  4.6126E-003  
  418.50  5.0654E-003  
  419.00  5.2922E-003  
  419.50  5.3237E-003  
  420.00  5.4180E-003  
  420.50  5.6851E-003  
  421.00  6.2054E-003  
  421.50  6.8719E-003  
  422.00  7.3383E-003  
  422.50  7.7412E-003  
  423.00  8.3345E-003  
  423.50  8.4556E-003  
  424.00  8.8901E-003  
  424.50  9.2325E-003  
  425.00  9.8258E-003  
  425.50  1.0580E-002  
  426.00  1.1339E-002  
  426.50  1.1995E-002  
  427.00  1.2542E-002  
  427.50  1.3147E-002  
  428.00  1.3813E-002  
  428.50  1.4728E-002  
  429.00  1.5609E-002  
  429.50  1.6406E-002  
  430.00  1.7251E-002  
  430.50  1.8133E-002  
  431.00  1.9055E-002  
  431.50  1.9929E-002  
  432.00  2.0548E-002  
  432.50  2.1400E-002  
  433.00  2.2558E-002  
  433.50  2.4198E-002  
  434.00  2.6012E-002  
  434.50  2.7829E-002  
  435.00  2.9448E-002  
  435.50  3.1096E-002  
  436.00  3.2801E-002  
  436.50  3.4359E-002  
  437.00  3.5933E-002  
  437.50  3.7405E-002  
  438.00  3.9111E-002  
  438.50  4.1418E-002  
  439.00  4.3750E-002  
  439.50  4.6538E-002  
  440.00  4.9716E-002  
  440.50  5.2653E-002  
  441.00  5.5758E-002  
  441.50  5.8885E-002  
  442.00  6.2364E-002  
  442.50  6.6516E-002  
  443.00  7.0678E-002  
  443.50  7.4505E-002  
  444.00  7.8355E-002  
  444.50  8.2157E-002  
  445.00  8.6377E-002  
  445.50  9.1069E-002  
  446.00  9.5273E-002  
  446.50  9.9687E-002  
  447.00  1.0390E-001  
  447.50  1.0817E-001  
  448.00  1.1199E-001  
  448.50  1.1505E-001  
  449.00  1.1731E-001  
  449.50  1.1855E-001  
  450.00  1.1847E-001  
  450.50  1.1815E-001  
  451.00  1.1767E-001  
  451.50  1.1697E-001  
  452.00  1.1564E-001  
  452.50  1.1317E-001  
  453.00  1.1078E-001  
  453.50  1.0797E-001  
  454.00  1.0514E-001  
  454.50  1.0172E-001  
  455.00  9.7981E-002  
  455.50  9.4409E-002  
  456.00  9.0864E-002  
  456.50  8.7772E-002  
  457.00  8.5224E-002  
  457.50  8.2592E-002  
  458.00  8.0093E-002  
  458.50  7.7822E-002  
  459.00  7.5791E-002  
  459.50  7.4051E-002  
  460.00  7.2391E-002  
  460.50  7.1057E-002  
  461.00  7.0193E-002  
  461.50  6.9834E-002  
  462.00  6.9049E-002  
  462.50  6.7849E-002  
  463.00  6.6713E-002  
  463.50  6.5224E-002  
  464.00  6.4364E-002  
  464.50  6.3710E-002  
  465.00  6.2999E-002  
  465.50  6.1896E-002  
  466.00  6.0460E-002  
  466.50  5.9359E-002  
  467.00  5.8440E-002  
  467.50  5.7696E-002  
  468.00  5.6505E-002  
  468.50  5.5154E-002  
  469.00  5.3748E-002  
  469.50  5.2447E-002  
  470.00  5.1276E-002  
  470.50  5.0107E-002  
  471.00  4.8945E-002  
  471.50  4.7554E-002  
  472.00  4.6305E-002  
  472.50  4.5279E-002  
  473.00  4.4519E-002  
  473.50  4.3961E-002  
  474.00  4.3482E-002  
  474.50  4.2933E-002  
  475.00  4.2418E-002  
  475.50  4.1916E-002  
  476.00  4.1648E-002  
  476.50  4.1438E-002  
  477.00  4.1339E-002  
  477.50  4.1225E-002  
  478.00  4.1159E-002  
  478.50  4.0982E-002  
  479.00  4.1032E-002  
  479.50  4.0955E-002  
  480.00  4.1108E-002  
  480.50  4.1213E-002  
  481.00  4.1135E-002  
  481.50  4.1162E-002  
  482.00  4.1204E-002  
  482.50  4.1276E-002  
  483.00  4.1534E-002  
  483.50  4.1771E-002  
  484.00  4.2185E-002  
  484.50  4.2300E-002  
  485.00  4.2531E-002  
  485.50  4.2530E-002  
  486.00  4.2855E-002  
  486.50  4.3207E-002  
  487.00  4.3426E-002  
  487.50  4.3475E-002  
  488.00  4.3477E-002  
  488.50  4.3768E-002  
  489.00  4.4195E-002  
  489.50  4.4685E-002  
  490.00  4.4894E-002  
  490.50  4.5035E-002  
  491.00  4.5245E-002  
  491.50  4.5519E-002  
  492.00  4.6216E-002  
  492.50  4.6899E-002  
  493.00  4.7366E-002  
  493.50  4.7517E-002  
  494.00  4.7458E-002  
  494.50  4.7756E-002  
  495.00  4.8221E-002  
  495.50  4.8824E-002  
  496.00  4.9305E-002  
  496.50  4.9595E-002  
  497.00  5.0081E-002  
  497.50  5.0649E-002  
  498.00  5.1255E-002  
  498.50  5.1650E-002  
  499.00  5.1960E-002  
  499.50  5.2324E-002  
  500.00  5.2798E-002  
  500.50  5.3327E-002  
  501.00  5.3850E-002  
  501.50  5.4353E-002  
  502.00  5.4797E-002  
  502.50  5.5362E-002  
  503.00  5.5816E-002  
  503.50  5.6263E-002  
  504.00  5.6588E-002  
  504.50  5.6812E-002  
  505.00  5.7226E-002  
  505.50  5.7639E-002  
  506.00  5.7899E-002  
  506.50  5.8073E-002  
  507.00  5.8437E-002  
  507.50  5.8930E-002  
  508.00  5.9598E-002  
  508.50  6.0026E-002  
  509.00  6.0314E-002  
  509.50  6.0507E-002  
  510.00  6.0622E-002  
  510.50  6.0775E-002  
  511.00  6.1127E-002  
  511.50  6.1476E-002  
  512.00  6.1873E-002  
  512.50  6.2168E-002  
  513.00  6.2413E-002  
  513.50  6.2608E-002  
  514.00  6.2821E-002  
  514.50  6.3056E-002  
  515.00  6.3467E-002  
  515.50  6.3903E-002  
  516.00  6.4189E-002  
  516.50  6.4403E-002  
  517.00  6.4643E-002  
  517.50  6.4723E-002  
  518.00  6.5107E-002  
  518.50  6.5398E-002  
  519.00  6.5684E-002  
  519.50  6.5886E-002  
  520.00  6.5999E-002  
  520.50  6.6259E-002  
  521.00  6.6601E-002  
  521.50  6.6899E-002  
  522.00  6.7261E-002  
  522.50  6.7510E-002  
  523.00  6.7793E-002  
  523.50  6.7994E-002  
  524.00  6.8196E-002  
  524.50  6.8423E-002  
  525.00  6.8535E-002  
  525.50  6.8646E-002  
  526.00  6.8799E-002  
  526.50  6.9032E-002  
  527.00  6.9295E-002  
  527.50  6.9507E-002  
  528.00  6.9743E-002  
  528.50  7.0285E-002  
  529.00  7.0705E-002  
  529.50  7.0937E-002  
  530.00  7.1001E-002  
  530.50  7.0910E-002  
  531.00  7.1112E-002  
  531.50  7.1419E-002  
  532.00  7.1693E-002  
  532.50  7.1919E-002  
  533.00  7.2004E-002  
  533.50  7.2207E-002  
  534.00  7.2498E-002  
  534.50  7.2823E-002  
  535.00  7.3057E-002  
  535.50  7.3124E-002  
  536.00  7.3183E-002  
  536.50  7.3162E-002  
  537.00  7.3237E-002  
  537.50  7.3448E-002  
  538.00  7.3697E-002  
  538.50  7.3908E-002  
  539.00  7.4055E-002  
  539.50  7.4077E-002  
  540.00  7.4183E-002  
  540.50  7.4338E-002  
  541.00  7.4366E-002  
  541.50  7.4435E-002  
  542.00  7.4352E-002  
  542.50  7.4383E-002  
  543.00  7.4592E-002  
  543.50  7.5030E-002  
  544.00  7.5405E-002  
  544.50  7.5767E-002  
  545.00  7.5899E-002  
  545.50  7.6034E-002  
  546.00  7.6363E-002  
  546.50  7.6429E-002  
  547.00  7.6586E-002  
  547.50  7.6590E-002  
  548.00  7.6685E-002  
  548.50  7.6644E-002  
  549.00  7.6647E-002  
  549.50  7.6816E-002  
  550.00  7.7029E-002  
  550.50  7.7327E-002  
  551.00  7.7373E-002  
  551.50  7.7312E-002  
  552.00  7.7148E-002  
  552.50  7.7017E-002  
  553.00  7.6959E-002  
  553.50  7.6934E-002  
  554.00  7.7153E-002  
  554.50  7.7478E-002  
  555.00  7.7693E-002  
  555.50  7.7585E-002  
  556.00  7.7311E-002  
  556.50  7.7454E-002  
  557.00  7.7850E-002  
  557.50  7.8135E-002  
  558.00  7.8157E-002  
  558.50  7.8014E-002  
  559.00  7.8046E-002  
  559.50  7.8313E-002  
  560.00  7.8620E-002  
  560.50  7.8432E-002  
  561.00  7.8253E-002  
  561.50  7.8096E-002  
  562.00  7.7892E-002  
  562.50  7.7934E-002  
  563.00  7.7772E-002  
  563.50  7.7819E-002  
  564.00  7.7927E-002  
  564.50  7.8038E-002  
  565.00  7.8214E-002  
  565.50  7.8293E-002  
  566.00  7.8099E-002  
  566.50  7.7833E-002  
  567.00  7.7474E-002  
  567.50  7.7411E-002  
  568.00  7.7442E-002  
  568.50  7.7467E-002  
  569.00  7.7229E-002  
  569.50  7.7306E-002  
  570.00  7.7109E-002  
  570.50  7.7068E-002  
  571.00  7.6653E-002  
  571.50  7.6384E-002  
  572.00  7.6257E-002  
  572.50  7.6288E-002  
  573.00  7.6399E-002  
  573.50  7.6578E-002  
  574.00  7.6558E-002  
  574.50  7.6697E-002  
  575.00  7.6807E-002  
  575.50  7.6820E-002  
  576.00  7.6525E-002  
  576.50  7.6140E-002  
  577.00  7.5964E-002  
  577.50  7.6006E-002  
  578.00  7.6218E-002  
  578.50  7.6363E-002  
  579.00  7.6214E-002  
  579.50  7.6057E-002  
  580.00  7.5864E-002  
  580.50  7.5777E-002  
  581.00  7.5818E-002  
  581.50  7.5711E-002  
  582.00  7.5584E-002  
  582.50  7.5342E-002  
  583.00  7.5089E-002  
  583.50  7.4988E-002  
  584.00  7.4929E-002  
  584.50  7.4750E-002  
  585.00  7.4962E-002  
  585.50  7.4941E-002  
  586.00  7.5270E-002  
  586.50  7.5213E-002  
  587.00  7.5117E-002  
  587.50  7.5000E-002  
  588.00  7.4520E-002  
  588.50  7.4222E-002  
  589.00  7.4054E-002  
  589.50  7.4342E-002  
  590.00  7.4630E-002  
  590.50  7.4846E-002  
  591.00  7.4999E-002  
  591.50  7.4950E-002  
  592.00  7.4937E-002  
  592.50  7.4772E-002  
  593.00  7.4651E-002  
  593.50  7.4776E-002  
  594.00  7.4775E-002  
  594.50  7.4690E-002  
  595.00  7.4249E-002  
  595.50  7.4019E-002  
  596.00  7.4175E-002  
  596.50  7.4504E-002  
  597.00  7.4579E-002  
  597.50  7.4585E-002  
  598.00  7.4687E-002  
  598.50  7.4719E-002  
  599.00  7.4613E-002  
  599.50  7.4553E-002  
  600.00  7.4482E-002  
  600.50  7.4572E-002  
  601.00  7.4376E-002  
  601.50  7.4113E-002  
  602.00  7.4047E-002  
  602.50  7.3951E-002  
  603.00  7.3987E-002  
  603.50  7.3997E-002  
  604.00  7.3862E-002  
  604.50  7.3946E-002  
  605.00  7.3777E-002  
  605.50  7.3898E-002  
  606.00  7.4007E-002  
  606.50  7.4373E-002  
  607.00  7.4663E-002  
  607.50  7.4774E-002  
  608.00  7.4486E-002  
  608.50  7.4103E-002  
  609.00  7.3618E-002  
  609.50  7.3373E-002  
  610.00  7.3444E-002  
  610.50  7.3517E-002  
  611.00  7.3407E-002  
  611.50  7.3230E-002  
  612.00  7.3039E-002  
  612.50  7.3165E-002  
  613.00  7.3298E-002  
  613.50  7.3239E-002  
  614.00  7.3102E-002  
  614.50  7.2962E-002  
  615.00  7.2891E-002  
  615.50  7.2948E-002  
  616.00  7.2686E-002  
  616.50  7.2738E-002  
  617.00  7.2631E-002  
  617.50  7.2746E-002  
  618.00  7.2748E-002  
  618.50  7.2652E-002  
  619.00  7.2480E-002  
  619.50  7.2356E-002  
  620.00  7.2412E-002  
  620.50  7.2668E-002  
  621.00  7.2468E-002  
  621.50  7.2033E-002  
  622.00  7.1762E-002  
  622.50  7.1512E-002  
  623.00  7.1642E-002  
  623.50  7.1489E-002  
  624.00  7.1514E-002  
  624.50  7.1297E-002  
  625.00  7.1230E-002  
  625.50  7.0773E-002  
  626.00  7.0309E-002  
  626.50  6.9719E-002  
  627.00  6.9451E-002  
  627.50  6.9547E-002  
  628.00  6.9729E-002  
  628.50  6.9824E-002  
  629.00  6.9451E-002  
  629.50  6.8958E-002  
  630.00  6.8609E-002  
  630.50  6.8460E-002  
  631.00  6.8392E-002  
  631.50  6.8489E-002  
  632.00  6.8343E-002  
  632.50  6.7961E-002  
  633.00  6.7411E-002  
  633.50  6.6885E-002  
  634.00  6.6906E-002  
  634.50  6.6980E-002  
  635.00  6.6956E-002  
  635.50  6.7035E-002  
  636.00  6.6814E-002  
  636.50  6.6635E-002  
  637.00  6.6066E-002  
  637.50  6.5427E-002  
  638.00  6.5232E-002  
  638.50  6.5112E-002  
  639.00  6.4751E-002  
  639.50  6.4237E-002  
  640.00  6.3435E-002  
  640.50  6.2933E-002  
  641.00  6.2528E-002  
  641.50  6.2153E-002  
  642.00  6.2329E-002  
  642.50  6.2404E-002  
  643.00  6.2523E-002  
  643.50  6.2296E-002  
  644.00  6.1904E-002  
  644.50  6.1483E-002  
  645.00  6.1163E-002  
  645.50  6.0821E-002  
  646.00  6.0581E-002  
  646.50  6.0292E-002  
  647.00  6.0290E-002  
  647.50  6.0158E-002  
  648.00  5.9619E-002  
  648.50  5.8822E-002  
  649.00  5.8084E-002  
  649.50  5.7814E-002  
  650.00  5.7881E-002  
  650.50  5.7881E-002  
  651.00  5.7249E-002  
  651.50  5.6404E-002  
  652.00  5.5816E-002  
  652.50  5.5664E-002  
  653.00  5.5432E-002  
  653.50  5.4877E-002  
  654.00  5.4188E-002  
  654.50  5.3608E-002  
  655.00  5.3563E-002  
  655.50  5.3117E-002  
  656.00  5.2564E-002  
  656.50  5.2012E-002  
  657.00  5.1951E-002  
  657.50  5.1980E-002  
  658.00  5.1527E-002  
  658.50  5.1230E-002  
  659.00  5.0631E-002  
  659.50  5.0041E-002  
  660.00  4.9277E-002  
  660.50  4.8887E-002  
  661.00  4.8595E-002  
  661.50  4.8038E-002  
  662.00  4.7564E-002  
  662.50  4.7182E-002  
  663.00  4.6923E-002  
  663.50  4.6495E-002  
  664.00  4.5888E-002  
  664.50  4.5597E-002  
  665.00  4.5284E-002  
  665.50  4.5067E-002  
  666.00  4.4535E-002  
  666.50  4.4020E-002  
  667.00  4.3593E-002  
  667.50  4.3277E-002  
  668.00  4.2469E-002  
  668.50  4.1520E-002  
  669.00  4.1082E-002  
  669.50  4.1074E-002  
  670.00  4.0575E-002  
  670.50  3.9804E-002  
  671.00  3.9360E-002  
  671.50  3.9264E-002  
  672.00  3.8918E-002  
  672.50  3.8443E-002  
  673.00  3.8248E-002  
  673.50  3.8051E-002  
  674.00  3.7627E-002  
  674.50  3.7017E-002  
  675.00  3.6279E-002  
  675.50  3.5902E-002  
  676.00  3.5782E-002  
  676.50  3.5547E-002  
  677.00  3.5034E-002  
  677.50  3.4857E-002  
  678.00  3.4724E-002  
  678.50  3.4165E-002  
  679.00  3.3139E-002  
  679.50  3.2430E-002  
  680.00  3.2117E-002  
  680.50  3.1669E-002  
  681.00  3.1226E-002  
