
# From lspdd.org
# 
# Name: LFC Noma Twister Domestique
# Indice spectral Valeur 
# MSI 0.07 
# SLI 0.29 
# IPI 0.49 
# Pourcentage de bleu 0.8 
# Caractéristique Valeur 
# CCT calculée (K) 2195 
# CCT du fabricant (K) 2700 
# Tension (V) 120 
# Puissance (W) 23.0 
# Efficacité lumineuse (Lum/W) ND 
#
# Image: '/app/system/img_1s/2750/medium_image1.JPG?1612236530'
# 

  273.00  0.0000E+000  
  273.50  0.0000E+000  
  274.00  0.0000E+000  
  274.50  0.0000E+000  
  275.00  0.0000E+000  
  275.50  0.0000E+000  
  276.00  0.0000E+000  
  276.50  0.0000E+000  
  277.00  0.0000E+000  
  277.50  0.0000E+000  
  278.00  0.0000E+000  
  278.50  0.0000E+000  
  279.00  0.0000E+000  
  279.50  0.0000E+000  
  280.00  0.0000E+000  
  280.50  0.0000E+000  
  281.00  0.0000E+000  
  281.50  0.0000E+000  
  282.00  0.0000E+000  
  282.50  0.0000E+000  
  283.00  0.0000E+000  
  283.50  0.0000E+000  
  284.00  0.0000E+000  
  284.50  0.0000E+000  
  285.00  0.0000E+000  
  285.50  0.0000E+000  
  286.00  0.0000E+000  
  286.50  0.0000E+000  
  287.00  0.0000E+000  
  287.50  0.0000E+000  
  288.00  0.0000E+000  
  288.50  0.0000E+000  
  289.00  0.0000E+000  
  289.50  0.0000E+000  
  290.00  0.0000E+000  
  290.50  0.0000E+000  
  291.00  0.0000E+000  
  291.50  0.0000E+000  
  292.00  0.0000E+000  
  292.50  0.0000E+000  
  293.00  0.0000E+000  
  293.50  0.0000E+000  
  294.00  0.0000E+000  
  294.50  0.0000E+000  
  295.00  0.0000E+000  
  295.50  0.0000E+000  
  296.00  0.0000E+000  
  296.50  0.0000E+000  
  297.00  0.0000E+000  
  297.50  0.0000E+000  
  298.00  0.0000E+000  
  298.50  0.0000E+000  
  299.00  0.0000E+000  
  299.50  0.0000E+000  
  300.00  2.9523E-005  
  300.50  1.2543E-004  
  301.00  1.3531E-004  
  301.50  1.4453E-004  
  302.00  2.7662E-004  
  302.50  1.7335E-004  
  303.00  8.4182E-005  
  303.50  8.0562E-006  
  304.00  0.0000E+000  
  304.50  0.0000E+000  
  305.00  0.0000E+000  
  305.50  0.0000E+000  
  306.00  2.2056E-006  
  306.50  0.0000E+000  
  307.00  0.0000E+000  
  307.50  0.0000E+000  
  308.00  0.0000E+000  
  308.50  0.0000E+000  
  309.00  0.0000E+000  
  309.50  1.1689E-005  
  310.00  9.0080E-005  
  310.50  1.7748E-004  
  311.00  6.0589E-005  
  311.50  0.0000E+000  
  312.00  0.0000E+000  
  312.50  0.0000E+000  
  313.00  0.0000E+000  
  313.50  0.0000E+000  
  314.00  0.0000E+000  
  314.50  0.0000E+000  
  315.00  0.0000E+000  
  315.50  0.0000E+000  
  316.00  0.0000E+000  
  316.50  0.0000E+000  
  317.00  0.0000E+000  
  317.50  0.0000E+000  
  318.00  0.0000E+000  
  318.50  0.0000E+000  
  319.00  0.0000E+000  
  319.50  0.0000E+000  
  320.00  0.0000E+000  
  320.50  0.0000E+000  
  321.00  0.0000E+000  
  321.50  0.0000E+000  
  322.00  0.0000E+000  
  322.50  0.0000E+000  
  323.00  2.4443E-005  
  323.50  1.4135E-004  
  324.00  2.3583E-004  
  324.50  5.2716E-004  
  325.00  5.5820E-004  
  325.50  3.8426E-004  
  326.00  3.3795E-004  
  326.50  1.5507E-004  
  327.00  3.0855E-004  
  327.50  3.8186E-004  
  328.00  2.0011E-004  
  328.50  3.4348E-005  
  329.00  3.6647E-005  
  329.50  5.9601E-006  
  330.00  0.0000E+000  
  330.50  0.0000E+000  
  331.00  0.0000E+000  
  331.50  0.0000E+000  
  332.00  0.0000E+000  
  332.50  0.0000E+000  
  333.00  2.4633E-004  
  333.50  5.3897E-004  
  334.00  6.7935E-004  
  334.50  6.3714E-004  
  335.00  5.8453E-004  
  335.50  2.7690E-004  
  336.00  0.0000E+000  
  336.50  0.0000E+000  
  337.00  0.0000E+000  
  337.50  2.2402E-004  
  338.00  9.8558E-005  
  338.50  0.0000E+000  
  339.00  0.0000E+000  
  339.50  0.0000E+000  
  340.00  0.0000E+000  
  340.50  0.0000E+000  
  341.00  0.0000E+000  
  341.50  0.0000E+000  
  342.00  0.0000E+000  
  342.50  2.3501E-005  
  343.00  3.0137E-005  
  343.50  1.8867E-004  
  344.00  2.9048E-004  
  344.50  1.4996E-004  
  345.00  6.9247E-005  
  345.50  0.0000E+000  
  346.00  3.1405E-005  
  346.50  1.8625E-004  
  347.00  1.6182E-004  
  347.50  2.6387E-005  
  348.00  0.0000E+000  
  348.50  0.0000E+000  
  349.00  0.0000E+000  
  349.50  0.0000E+000  
  350.00  1.9784E-004  
  350.50  4.5043E-004  
  351.00  7.8375E-004  
  351.50  5.8966E-004  
  352.00  4.4988E-004  
  352.50  2.2004E-004  
  353.00  0.0000E+000  
  353.50  0.0000E+000  
  354.00  0.0000E+000  
  354.50  0.0000E+000  
  355.00  0.0000E+000  
  355.50  0.0000E+000  
  356.00  0.0000E+000  
  356.50  0.0000E+000  
  357.00  0.0000E+000  
  357.50  0.0000E+000  
  358.00  0.0000E+000  
  358.50  0.0000E+000  
  359.00  0.0000E+000  
  359.50  0.0000E+000  
  360.00  0.0000E+000  
  360.50  6.7029E-005  
  361.00  1.9622E-004  
  361.50  1.2766E-004  
  362.00  9.3799E-006  
  362.50  0.0000E+000  
  363.00  0.0000E+000  
  363.50  0.0000E+000  
  364.00  0.0000E+000  
  364.50  9.0131E-005  
  365.00  3.7583E-005  
  365.50  8.6580E-005  
  366.00  2.3120E-004  
  366.50  4.0664E-004  
  367.00  6.7363E-004  
  367.50  6.8907E-004  
  368.00  3.0701E-004  
  368.50  2.1426E-005  
  369.00  0.0000E+000  
  369.50  0.0000E+000  
  370.00  0.0000E+000  
  370.50  0.0000E+000  
  371.00  0.0000E+000  
  371.50  0.0000E+000  
  372.00  0.0000E+000  
  372.50  0.0000E+000  
  373.00  0.0000E+000  
  373.50  2.1730E-005  
  374.00  1.1533E-005  
  374.50  0.0000E+000  
  375.00  1.5494E-004  
  375.50  2.6884E-004  
  376.00  2.3422E-004  
  376.50  1.7688E-004  
  377.00  1.2868E-004  
  377.50  2.7739E-006  
  378.00  5.1122E-006  
  378.50  0.0000E+000  
  379.00  0.0000E+000  
  379.50  0.0000E+000  
  380.00  7.3670E-006  
  380.50  4.8014E-005  
  381.00  1.1179E-004  
  381.50  1.6741E-004  
  382.00  4.5511E-004  
  382.50  7.1743E-004  
  383.00  7.5242E-004  
  383.50  5.6058E-004  
  384.00  4.6944E-005  
  384.50  0.0000E+000  
  385.00  0.0000E+000  
  385.50  0.0000E+000  
  386.00  1.6134E-004  
  386.50  1.9973E-004  
  387.00  1.2588E-004  
  387.50  2.7321E-005  
  388.00  0.0000E+000  
  388.50  0.0000E+000  
  389.00  0.0000E+000  
  389.50  0.0000E+000  
  390.00  0.0000E+000  
  390.50  0.0000E+000  
  391.00  1.8716E-005  
  391.50  1.1042E-005  
  392.00  0.0000E+000  
  392.50  0.0000E+000  
  393.00  6.8841E-005  
  393.50  1.5642E-004  
  394.00  1.9559E-004  
  394.50  7.8071E-005  
  395.00  0.0000E+000  
  395.50  0.0000E+000  
  396.00  5.8014E-005  
  396.50  1.0727E-004  
  397.00  2.0556E-004  
  397.50  9.2992E-005  
  398.00  0.0000E+000  
  398.50  0.0000E+000  
  399.00  0.0000E+000  
  399.50  0.0000E+000  
  400.00  6.7356E-006  
  400.50  7.5770E-005  
  401.00  1.1725E-004  
  401.50  1.3716E-004  
  402.00  2.4328E-004  
  402.50  2.5399E-004  
  403.00  7.9035E-005  
  403.50  0.0000E+000  
  404.00  0.0000E+000  
  404.50  0.0000E+000  
  405.00  0.0000E+000  
  405.50  0.0000E+000  
  406.00  1.4766E-004  
  406.50  4.9333E-004  
  407.00  5.5569E-004  
  407.50  6.6480E-004  
  408.00  7.3333E-004  
  408.50  6.3643E-004  
  409.00  3.8712E-004  
  409.50  1.2284E-004  
  410.00  0.0000E+000  
  410.50  1.9453E-005  
  411.00  1.3058E-004  
  411.50  2.5401E-004  
  412.00  6.6748E-005  
  412.50  0.0000E+000  
  413.00  0.0000E+000  
  413.50  0.0000E+000  
  414.00  0.0000E+000  
  414.50  1.5219E-005  
  415.00  1.5277E-005  
  415.50  0.0000E+000  
  416.00  0.0000E+000  
  416.50  0.0000E+000  
  417.00  1.5279E-005  
  417.50  1.9751E-005  
  418.00  0.0000E+000  
  418.50  0.0000E+000  
  419.00  0.0000E+000  
  419.50  0.0000E+000  
  420.00  0.0000E+000  
  420.50  0.0000E+000  
  421.00  0.0000E+000  
  421.50  0.0000E+000  
  422.00  0.0000E+000  
  422.50  0.0000E+000  
  423.00  0.0000E+000  
  423.50  0.0000E+000  
  424.00  0.0000E+000  
  424.50  0.0000E+000  
  425.00  0.0000E+000  
  425.50  0.0000E+000  
  426.00  0.0000E+000  
  426.50  0.0000E+000  
  427.00  0.0000E+000  
  427.50  0.0000E+000  
  428.00  7.3285E-005  
  428.50  1.8134E-004  
  429.00  2.2816E-004  
  429.50  2.0946E-004  
  430.00  3.5042E-005  
  430.50  0.0000E+000  
  431.00  0.0000E+000  
  431.50  0.0000E+000  
  432.00  0.0000E+000  
  432.50  1.1703E-005  
  433.00  3.4986E-004  
  433.50  6.1320E-004  
  434.00  5.0679E-004  
  434.50  1.2766E-004  
  435.00  0.0000E+000  
  435.50  0.0000E+000  
  436.00  3.9758E-005  
  436.50  2.2664E-004  
  437.00  3.0514E-004  
  437.50  3.2642E-004  
  438.00  2.6217E-004  
  438.50  2.7942E-004  
  439.00  3.2732E-004  
  439.50  3.0178E-004  
  440.00  2.7747E-004  
  440.50  1.9530E-004  
  441.00  4.0154E-005  
  441.50  0.0000E+000  
  442.00  0.0000E+000  
  442.50  0.0000E+000  
  443.00  0.0000E+000  
  443.50  0.0000E+000  
  444.00  0.0000E+000  
  444.50  0.0000E+000  
  445.00  0.0000E+000  
  445.50  0.0000E+000  
  446.00  0.0000E+000  
  446.50  0.0000E+000  
  447.00  0.0000E+000  
  447.50  0.0000E+000  
  448.00  0.0000E+000  
  448.50  0.0000E+000  
  449.00  0.0000E+000  
  449.50  0.0000E+000  
  450.00  0.0000E+000  
  450.50  0.0000E+000  
  451.00  0.0000E+000  
  451.50  1.2492E-005  
  452.00  1.9048E-004  
  452.50  3.1702E-004  
  453.00  1.5445E-004  
  453.50  7.2716E-007  
  454.00  1.9048E-006  
  454.50  0.0000E+000  
  455.00  0.0000E+000  
  455.50  5.1105E-005  
  456.00  2.6180E-004  
  456.50  3.0251E-004  
  457.00  2.4489E-004  
  457.50  3.0607E-004  
  458.00  4.9261E-004  
  458.50  5.1651E-004  
  459.00  4.3501E-004  
  459.50  1.6179E-004  
  460.00  0.0000E+000  
  460.50  9.2514E-005  
  461.00  1.2871E-004  
  461.50  3.2810E-004  
  462.00  3.9245E-004  
  462.50  3.9180E-004  
  463.00  3.2954E-004  
  463.50  1.8956E-004  
  464.00  0.0000E+000  
  464.50  0.0000E+000  
  465.00  2.3086E-006  
  465.50  4.0720E-005  
  466.00  2.0505E-004  
  466.50  3.1215E-004  
  467.00  2.9445E-004  
  467.50  2.1165E-004  
  468.00  6.1059E-005  
  468.50  0.0000E+000  
  469.00  4.0786E-006  
  469.50  8.2913E-005  
  470.00  1.7225E-005  
  470.50  4.2566E-005  
  471.00  8.4903E-006  
  471.50  4.9084E-005  
  472.00  1.7882E-004  
  472.50  3.1815E-004  
  473.00  3.4598E-004  
  473.50  2.0050E-004  
  474.00  0.0000E+000  
  474.50  0.0000E+000  
  475.00  0.0000E+000  
  475.50  1.8534E-004  
  476.00  2.8728E-004  
  476.50  2.9744E-004  
  477.00  1.6371E-004  
  477.50  1.0790E-004  
  478.00  8.0884E-005  
  478.50  4.8911E-005  
  479.00  7.9885E-005  
  479.50  1.9365E-004  
  480.00  2.8212E-004  
  480.50  4.3646E-004  
  481.00  4.9823E-004  
  481.50  4.4566E-004  
  482.00  2.3334E-004  
  482.50  1.7844E-005  
  483.00  0.0000E+000  
  483.50  0.0000E+000  
  484.00  0.0000E+000  
  484.50  0.0000E+000  
  485.00  0.0000E+000  
  485.50  0.0000E+000  
  486.00  0.0000E+000  
  486.50  0.0000E+000  
  487.00  2.6865E-005  
  487.50  1.7608E-004  
  488.00  1.9529E-004  
  488.50  2.1555E-004  
  489.00  2.2699E-004  
  489.50  1.6200E-004  
  490.00  4.9016E-005  
  490.50  0.0000E+000  
  491.00  0.0000E+000  
  491.50  1.2983E-005  
  492.00  1.5315E-004  
  492.50  2.0290E-004  
  493.00  1.9453E-004  
  493.50  1.8099E-004  
  494.00  1.0318E-004  
  494.50  2.1460E-005  
  495.00  0.0000E+000  
  495.50  0.0000E+000  
  496.00  0.0000E+000  
  496.50  1.7174E-005  
  497.00  3.8854E-005  
  497.50  7.6049E-005  
  498.00  2.7174E-005  
  498.50  2.9175E-005  
  499.00  6.3295E-005  
  499.50  1.1915E-004  
  500.00  2.0982E-004  
  500.50  1.9020E-004  
  501.00  2.0900E-004  
  501.50  2.0378E-004  
  502.00  2.2868E-004  
  502.50  1.7369E-004  
  503.00  1.5716E-004  
  503.50  9.0801E-005  
  504.00  1.5254E-004  
  504.50  1.4847E-004  
  505.00  1.8169E-004  
  505.50  1.6329E-004  
  506.00  1.2389E-004  
  506.50  5.6401E-005  
  507.00  1.1051E-006  
  507.50  5.2606E-005  
  508.00  1.5104E-004  
  508.50  2.7639E-004  
  509.00  2.4499E-004  
  509.50  1.4376E-004  
  510.00  8.9446E-005  
  510.50  9.0906E-005  
  511.00  2.1024E-004  
  511.50  1.6591E-004  
  512.00  1.2651E-004  
  512.50  3.4903E-005  
  513.00  2.5322E-005  
  513.50  3.8984E-005  
  514.00  6.3315E-005  
  514.50  1.1600E-004  
  515.00  1.8955E-004  
  515.50  2.4502E-004  
  516.00  2.1300E-004  
  516.50  1.5978E-004  
  517.00  1.8432E-004  
  517.50  2.3279E-004  
  518.00  3.3586E-004  
  518.50  3.1067E-004  
  519.00  2.2205E-004  
  519.50  1.6875E-004  
  520.00  2.2730E-004  
  520.50  3.1012E-004  
  521.00  4.2264E-004  
  521.50  4.7950E-004  
  522.00  5.1867E-004  
  522.50  5.3835E-004  
  523.00  5.1701E-004  
  523.50  5.1642E-004  
  524.00  5.8745E-004  
  524.50  6.4886E-004  
  525.00  5.8999E-004  
  525.50  5.1776E-004  
  526.00  4.5830E-004  
  526.50  5.1009E-004  
  527.00  6.0970E-004  
  527.50  6.3048E-004  
  528.00  6.7626E-004  
  528.50  7.7999E-004  
  529.00  8.2975E-004  
  529.50  9.2685E-004  
  530.00  9.8556E-004  
  530.50  9.9098E-004  
  531.00  1.0606E-003  
  531.50  1.1368E-003  
  532.00  1.4230E-003  
  532.50  1.8027E-003  
  533.00  2.1569E-003  
  533.50  2.2305E-003  
  534.00  2.1973E-003  
  534.50  2.1495E-003  
  535.00  2.3526E-003  
  535.50  2.7515E-003  
  536.00  3.3342E-003  
  536.50  4.2065E-003  
  537.00  5.3428E-003  
  537.50  6.6910E-003  
  538.00  8.1530E-003  
  538.50  9.9755E-003  
  539.00  1.2982E-002  
  539.50  1.7871E-002  
  540.00  2.5404E-002  
  540.50  3.5021E-002  
  541.00  4.4242E-002  
  541.50  5.0061E-002  
  542.00  5.0589E-002  
  542.50  4.7814E-002  
  543.00  4.4844E-002  
  543.50  4.3768E-002  
  544.00  4.8162E-002  
  544.50  6.1379E-002  
  545.00  8.4443E-002  
  545.50  1.0542E-001  
  546.00  1.0720E-001  
  546.50  9.0754E-002  
  547.00  6.5744E-002  
  547.50  4.6257E-002  
  548.00  3.6532E-002  
  548.50  3.1159E-002  
  549.00  2.7366E-002  
  549.50  2.4037E-002  
  550.00  2.0917E-002  
  550.50  1.8100E-002  
  551.00  1.5655E-002  
  551.50  1.3571E-002  
  552.00  1.1879E-002  
  552.50  1.0487E-002  
  553.00  9.2858E-003  
  553.50  8.2028E-003  
  554.00  7.1499E-003  
  554.50  6.2659E-003  
  555.00  5.4057E-003  
  555.50  4.6684E-003  
  556.00  4.0790E-003  
  556.50  3.6194E-003  
  557.00  3.3700E-003  
  557.50  3.1431E-003  
  558.00  2.9632E-003  
  558.50  2.6988E-003  
  559.00  2.4616E-003  
  559.50  2.3160E-003  
  560.00  2.2339E-003  
  560.50  2.1764E-003  
  561.00  2.0866E-003  
  561.50  2.1342E-003  
  562.00  2.1233E-003  
  562.50  2.1366E-003  
  563.00  1.9911E-003  
  563.50  1.8752E-003  
  564.00  1.7940E-003  
  564.50  1.8329E-003  
  565.00  1.9552E-003  
  565.50  1.9690E-003  
  566.00  1.8986E-003  
  566.50  1.8073E-003  
  567.00  1.8547E-003  
  567.50  1.8320E-003  
  568.00  1.8378E-003  
  568.50  1.8597E-003  
  569.00  1.9262E-003  
  569.50  1.8546E-003  
  570.00  1.6001E-003  
  570.50  1.2247E-003  
  571.00  1.0474E-003  
  571.50  9.7155E-004  
  572.00  1.0656E-003  
  572.50  1.0786E-003  
  573.00  1.1961E-003  
  573.50  1.3643E-003  
  574.00  1.6242E-003  
  574.50  1.9826E-003  
  575.00  3.4176E-003  
  575.50  7.3815E-003  
  576.00  1.3585E-002  
  576.50  1.8833E-002  
  577.00  2.0458E-002  
  577.50  1.9417E-002  
  578.00  1.9419E-002  
  578.50  2.1582E-002  
  579.00  2.2885E-002  
  579.50  2.1123E-002  
  580.00  1.7419E-002  
  580.50  1.4348E-002  
  581.00  1.3098E-002  
  581.50  1.3270E-002  
  582.00  1.4437E-002  
  582.50  1.5661E-002  
  583.00  1.6609E-002  
  583.50  1.6958E-002  
  584.00  1.6709E-002  
  584.50  1.6139E-002  
  585.00  1.5809E-002  
  585.50  1.6664E-002  
  586.00  1.9079E-002  
  586.50  2.2454E-002  
  587.00  2.4431E-002  
  587.50  2.3461E-002  
  588.00  1.9816E-002  
  588.50  1.5570E-002  
  589.00  1.2632E-002  
  589.50  1.1125E-002  
  590.00  1.1018E-002  
  590.50  1.1605E-002  
  591.00  1.2914E-002  
  591.50  1.5203E-002  
  592.00  1.8231E-002  
  592.50  2.0779E-002  
  593.00  2.1493E-002  
  593.50  1.9417E-002  
  594.00  1.5860E-002  
  594.50  1.2357E-002  
  595.00  1.0099E-002  
  595.50  9.0161E-003  
  596.00  8.7713E-003  
  596.50  8.8306E-003  
  597.00  9.2821E-003  
  597.50  1.0157E-002  
  598.00  1.1711E-002  
  598.50  1.3558E-002  
  599.00  1.4935E-002  
  599.50  1.5121E-002  
  600.00  1.3958E-002  
  600.50  1.2173E-002  
  601.00  1.0163E-002  
  601.50  8.5311E-003  
  602.00  7.3590E-003  
  602.50  6.6768E-003  
  603.00  6.5490E-003  
  603.50  6.7292E-003  
  604.00  7.1287E-003  
  604.50  7.4845E-003  
  605.00  7.8377E-003  
  605.50  8.3797E-003  
  606.00  9.1897E-003  
  606.50  1.0279E-002  
  607.00  1.2057E-002  
  607.50  1.4623E-002  
  608.00  1.9107E-002  
  608.50  2.6376E-002  
  609.00  3.9870E-002  
  609.50  6.8345E-002  
  610.00  1.1512E-001  
  610.50  1.7173E-001  
  611.00  2.1017E-001  
  611.50  2.1141E-001  
  612.00  1.7669E-001  
  612.50  1.3327E-001  
  613.00  1.0058E-001  
  613.50  8.1966E-002  
  614.00  7.1550E-002  
  614.50  6.3252E-002  
  615.00  5.3707E-002  
  615.50  4.3327E-002  
  616.00  3.3900E-002  
  616.50  2.6629E-002  
  617.00  2.1692E-002  
  617.50  1.8554E-002  
  618.00  1.6659E-002  
  618.50  1.5652E-002  
  619.00  1.4987E-002  
  619.50  1.4867E-002  
  620.00  1.5078E-002  
  620.50  1.5391E-002  
  621.00  1.5725E-002  
  621.50  1.5926E-002  
  622.00  1.6179E-002  
  622.50  1.6613E-002  
  623.00  1.7263E-002  
  623.50  1.8089E-002  
  624.00  1.8605E-002  
  624.50  1.9021E-002  
  625.00  1.9374E-002  
  625.50  1.9485E-002  
  626.00  1.9246E-002  
  626.50  1.8840E-002  
  627.00  1.8446E-002  
  627.50  1.8116E-002  
  628.00  1.7829E-002  
  628.50  1.7903E-002  
  629.00  1.9147E-002  
  629.50  2.1948E-002  
  630.00  2.5912E-002  
  630.50  2.8960E-002  
  631.00  2.8620E-002  
  631.50  2.4331E-002  
  632.00  1.8125E-002  
  632.50  1.2368E-002  
  633.00  8.5808E-003  
  633.50  6.3135E-003  
  634.00  5.2075E-003  
  634.50  4.4799E-003  
  635.00  4.2117E-003  
  635.50  4.1346E-003  
  636.00  4.2980E-003  
  636.50  4.1685E-003  
  637.00  3.8564E-003  
  637.50  3.4087E-003  
  638.00  3.0780E-003  
  638.50  3.0726E-003  
  639.00  3.2214E-003  
  639.50  3.2870E-003  
  640.00  3.2420E-003  
  640.50  3.0721E-003  
  641.00  3.1486E-003  
  641.50  3.0891E-003  
  642.00  2.8751E-003  
  642.50  2.7866E-003  
  643.00  2.8732E-003  
  643.50  3.1360E-003  
  644.00  3.2110E-003  
  644.50  3.1841E-003  
  645.00  3.3153E-003  
  645.50  3.3572E-003  
  646.00  3.2988E-003  
  646.50  2.9866E-003  
  647.00  2.8245E-003  
  647.50  2.8362E-003  
  648.00  2.9092E-003  
  648.50  3.2974E-003  
  649.00  4.3511E-003  
  649.50  6.0684E-003  
  650.00  7.9200E-003  
  650.50  8.6210E-003  
  651.00  8.0495E-003  
  651.50  6.7771E-003  
  652.00  5.8298E-003  
  652.50  5.3805E-003  
  653.00  5.0069E-003  
  653.50  4.6618E-003  
  654.00  4.2000E-003  
  654.50  3.6011E-003  
  655.00  3.0739E-003  
  655.50  2.9271E-003  
  656.00  3.1364E-003  
  656.50  3.4080E-003  
  657.00  3.5556E-003  
  657.50  3.6290E-003  
  658.00  3.5189E-003  
  658.50  3.4312E-003  
  659.00  3.1550E-003  
  659.50  2.7259E-003  
  660.00  2.4306E-003  
  660.50  2.4740E-003  
  661.00  3.3155E-003  
  661.50  4.3711E-003  
  662.00  5.3135E-003  
  662.50  5.3753E-003  
  663.00  5.0598E-003  
  663.50  4.2368E-003  
  664.00  3.6435E-003  
  664.50  2.7725E-003  
  665.00  2.3013E-003  
  665.50  1.9786E-003  
  666.00  2.0782E-003  
  666.50  2.3700E-003  
  667.00  2.6125E-003  
  667.50  2.4869E-003  
  668.00  2.3007E-003  
  668.50  2.0683E-003  
  669.00  2.0488E-003  
  669.50  1.9315E-003  
  670.00  1.8825E-003  
  670.50  1.8043E-003  
  671.00  1.7547E-003  
  671.50  1.8580E-003  
  672.00  1.9001E-003  
  672.50  1.8629E-003  
  673.00  1.6978E-003  
  673.50  1.6436E-003  
  674.00  1.5270E-003  
  674.50  1.4538E-003  
  675.00  1.4181E-003  
  675.50  1.4546E-003  
  676.00  1.4706E-003  
  676.50  1.3520E-003  
  677.00  1.2966E-003  
  677.50  1.2862E-003  
  678.00  1.6290E-003  
  678.50  1.7218E-003  
  679.00  1.8514E-003  
  679.50  1.9973E-003  
  680.00  2.2586E-003  
  680.50  2.2172E-003  
  681.00  1.9679E-003  
