
# From lspdd.org
# 
# Name: DEL Greatwall-Ledlight A19 Domestique
# Indice spectral Valeur 
# MSI 0.14 
# SLI 0.32 
# IPI 0.64 
# Pourcentage de bleu 9.1 
# Caractéristique Valeur 
# CCT calculée (K) 2096 
# CCT du fabricant (K) 2200 
# Tension (V) 277 
# Puissance (W) 9.0 
# Efficacité lumineuse (Lum/W) ND 
#
# Image: '/app/system/img_1s/2752/medium_image1.JPG?1612236535'
# 

  273.00  0.0000E+000  
  273.50  0.0000E+000  
  274.00  0.0000E+000  
  274.50  0.0000E+000  
  275.00  0.0000E+000  
  275.50  0.0000E+000  
  276.00  0.0000E+000  
  276.50  0.0000E+000  
  277.00  0.0000E+000  
  277.50  0.0000E+000  
  278.00  0.0000E+000  
  278.50  0.0000E+000  
  279.00  0.0000E+000  
  279.50  0.0000E+000  
  280.00  0.0000E+000  
  280.50  0.0000E+000  
  281.00  0.0000E+000  
  281.50  0.0000E+000  
  282.00  0.0000E+000  
  282.50  0.0000E+000  
  283.00  0.0000E+000  
  283.50  0.0000E+000  
  284.00  0.0000E+000  
  284.50  0.0000E+000  
  285.00  0.0000E+000  
  285.50  0.0000E+000  
  286.00  0.0000E+000  
  286.50  0.0000E+000  
  287.00  0.0000E+000  
  287.50  0.0000E+000  
  288.00  0.0000E+000  
  288.50  0.0000E+000  
  289.00  0.0000E+000  
  289.50  0.0000E+000  
  290.00  0.0000E+000  
  290.50  0.0000E+000  
  291.00  0.0000E+000  
  291.50  0.0000E+000  
  292.00  0.0000E+000  
  292.50  0.0000E+000  
  293.00  0.0000E+000  
  293.50  0.0000E+000  
  294.00  0.0000E+000  
  294.50  0.0000E+000  
  295.00  0.0000E+000  
  295.50  0.0000E+000  
  296.00  0.0000E+000  
  296.50  0.0000E+000  
  297.00  0.0000E+000  
  297.50  0.0000E+000  
  298.00  0.0000E+000  
  298.50  0.0000E+000  
  299.00  0.0000E+000  
  299.50  0.0000E+000  
  300.00  0.0000E+000  
  300.50  0.0000E+000  
  301.00  0.0000E+000  
  301.50  0.0000E+000  
  302.00  0.0000E+000  
  302.50  0.0000E+000  
  303.00  0.0000E+000  
  303.50  0.0000E+000  
  304.00  0.0000E+000  
  304.50  8.1980E-005  
  305.00  3.4088E-005  
  305.50  3.8540E-005  
  306.00  0.0000E+000  
  306.50  0.0000E+000  
  307.00  0.0000E+000  
  307.50  0.0000E+000  
  308.00  0.0000E+000  
  308.50  0.0000E+000  
  309.00  0.0000E+000  
  309.50  0.0000E+000  
  310.00  0.0000E+000  
  310.50  0.0000E+000  
  311.00  2.4339E-005  
  311.50  2.2256E-004  
  312.00  2.3002E-004  
  312.50  5.4121E-004  
  313.00  7.6114E-004  
  313.50  6.3350E-004  
  314.00  5.9589E-004  
  314.50  3.8891E-004  
  315.00  1.6473E-004  
  315.50  2.3904E-004  
  316.00  3.2422E-004  
  316.50  1.6885E-004  
  317.00  1.1258E-004  
  317.50  0.0000E+000  
  318.00  0.0000E+000  
  318.50  0.0000E+000  
  319.00  1.0903E-004  
  319.50  3.5596E-004  
  320.00  2.6627E-004  
  320.50  3.2641E-004  
  321.00  6.8974E-005  
  321.50  1.0522E-004  
  322.00  2.9348E-004  
  322.50  4.3876E-004  
  323.00  6.2587E-004  
  323.50  5.1382E-004  
  324.00  3.0825E-004  
  324.50  1.7599E-004  
  325.00  2.2826E-004  
  325.50  2.2730E-004  
  326.00  2.2554E-004  
  326.50  2.2534E-004  
  327.00  1.8746E-004  
  327.50  2.7105E-004  
  328.00  3.1399E-004  
  328.50  0.0000E+000  
  329.00  0.0000E+000  
  329.50  0.0000E+000  
  330.00  1.5435E-005  
  330.50  2.0354E-004  
  331.00  1.4788E-004  
  331.50  0.0000E+000  
  332.00  0.0000E+000  
  332.50  0.0000E+000  
  333.00  0.0000E+000  
  333.50  0.0000E+000  
  334.00  0.0000E+000  
  334.50  3.3115E-006  
  335.00  2.5091E-004  
  335.50  4.0712E-004  
  336.00  4.7925E-004  
  336.50  4.0493E-004  
  337.00  3.6875E-004  
  337.50  3.1810E-004  
  338.00  1.3702E-004  
  338.50  2.8055E-005  
  339.00  3.3469E-007  
  339.50  0.0000E+000  
  340.00  6.4495E-006  
  340.50  3.5469E-007  
  341.00  5.4106E-005  
  341.50  1.4810E-006  
  342.00  0.0000E+000  
  342.50  0.0000E+000  
  343.00  5.1295E-005  
  343.50  4.2049E-004  
  344.00  6.2398E-004  
  344.50  6.8097E-004  
  345.00  4.5013E-004  
  345.50  2.7964E-004  
  346.00  2.3054E-004  
  346.50  3.7175E-004  
  347.00  7.3896E-004  
  347.50  8.9598E-004  
  348.00  7.4099E-004  
  348.50  4.5820E-004  
  349.00  1.7337E-004  
  349.50  1.2091E-004  
  350.00  1.2760E-004  
  350.50  1.4988E-004  
  351.00  2.2113E-004  
  351.50  1.2550E-004  
  352.00  1.6404E-004  
  352.50  2.2021E-004  
  353.00  2.5387E-004  
  353.50  3.3413E-004  
  354.00  6.3330E-005  
  354.50  0.0000E+000  
  355.00  0.0000E+000  
  355.50  0.0000E+000  
  356.00  0.0000E+000  
  356.50  0.0000E+000  
  357.00  0.0000E+000  
  357.50  0.0000E+000  
  358.00  0.0000E+000  
  358.50  1.5851E-006  
  359.00  6.3123E-006  
  359.50  0.0000E+000  
  360.00  0.0000E+000  
  360.50  7.5678E-005  
  361.00  3.5831E-004  
  361.50  4.7266E-004  
  362.00  4.9045E-004  
  362.50  5.7251E-004  
  363.00  4.4401E-004  
  363.50  1.7136E-004  
  364.00  4.0089E-006  
  364.50  0.0000E+000  
  365.00  1.9253E-005  
  365.50  1.9877E-004  
  366.00  3.5715E-004  
  366.50  1.2921E-004  
  367.00  0.0000E+000  
  367.50  0.0000E+000  
  368.00  4.4112E-005  
  368.50  3.0865E-004  
  369.00  4.1591E-004  
  369.50  3.3997E-004  
  370.00  2.6714E-004  
  370.50  1.3207E-004  
  371.00  9.7727E-005  
  371.50  1.7453E-005  
  372.00  1.4232E-004  
  372.50  1.9719E-004  
  373.00  2.1754E-004  
  373.50  2.0538E-004  
  374.00  1.2124E-004  
  374.50  6.1469E-006  
  375.00  0.0000E+000  
  375.50  5.5665E-006  
  376.00  7.7981E-005  
  376.50  1.7703E-004  
  377.00  1.7023E-004  
  377.50  1.7286E-004  
  378.00  3.6519E-004  
  378.50  3.4334E-004  
  379.00  1.8905E-004  
  379.50  9.5306E-005  
  380.00  0.0000E+000  
  380.50  0.0000E+000  
  381.00  4.9354E-005  
  381.50  7.5874E-005  
  382.00  2.2784E-004  
  382.50  4.5795E-005  
  383.00  7.9574E-006  
  383.50  0.0000E+000  
  384.00  0.0000E+000  
  384.50  0.0000E+000  
  385.00  0.0000E+000  
  385.50  0.0000E+000  
  386.00  0.0000E+000  
  386.50  0.0000E+000  
  387.00  0.0000E+000  
  387.50  0.0000E+000  
  388.00  0.0000E+000  
  388.50  0.0000E+000  
  389.00  0.0000E+000  
  389.50  0.0000E+000  
  390.00  3.4608E-006  
  390.50  0.0000E+000  
  391.00  0.0000E+000  
  391.50  0.0000E+000  
  392.00  0.0000E+000  
  392.50  0.0000E+000  
  393.00  0.0000E+000  
  393.50  4.2798E-005  
  394.00  2.0291E-004  
  394.50  1.9689E-004  
  395.00  2.7333E-004  
  395.50  2.9644E-004  
  396.00  3.7498E-004  
  396.50  4.2154E-004  
  397.00  4.0258E-004  
  397.50  4.1622E-004  
  398.00  2.3094E-004  
  398.50  8.0676E-005  
  399.00  7.2861E-005  
  399.50  0.0000E+000  
  400.00  0.0000E+000  
  400.50  0.0000E+000  
  401.00  0.0000E+000  
  401.50  0.0000E+000  
  402.00  0.0000E+000  
  402.50  7.7048E-006  
  403.00  3.1274E-004  
  403.50  5.8636E-004  
  404.00  6.1889E-004  
  404.50  5.2634E-004  
  405.00  1.9160E-004  
  405.50  0.0000E+000  
  406.00  0.0000E+000  
  406.50  0.0000E+000  
  407.00  0.0000E+000  
  407.50  2.4825E-005  
  408.00  9.1611E-005  
  408.50  1.1915E-004  
  409.00  4.2352E-005  
  409.50  9.4601E-005  
  410.00  2.2873E-004  
  410.50  4.5600E-004  
  411.00  5.1407E-004  
  411.50  5.0544E-004  
  412.00  5.2809E-004  
  412.50  3.3115E-004  
  413.00  9.9397E-005  
  413.50  0.0000E+000  
  414.00  0.0000E+000  
  414.50  0.0000E+000  
  415.00  2.0009E-004  
  415.50  3.6347E-004  
  416.00  2.4542E-004  
  416.50  2.2770E-004  
  417.00  1.9001E-004  
  417.50  2.9668E-004  
  418.00  4.4317E-004  
  418.50  5.1143E-004  
  419.00  5.4151E-004  
  419.50  4.8879E-004  
  420.00  3.7846E-004  
  420.50  4.0985E-004  
  421.00  6.1432E-004  
  421.50  7.6479E-004  
  422.00  9.5635E-004  
  422.50  9.8177E-004  
  423.00  9.3901E-004  
  423.50  8.4666E-004  
  424.00  8.6649E-004  
  424.50  8.1816E-004  
  425.00  9.4516E-004  
  425.50  1.0857E-003  
  426.00  1.0574E-003  
  426.50  1.2476E-003  
  427.00  1.2713E-003  
  427.50  1.2423E-003  
  428.00  1.3834E-003  
  428.50  1.5060E-003  
  429.00  1.6897E-003  
  429.50  1.8735E-003  
  430.00  1.8933E-003  
  430.50  1.8580E-003  
  431.00  1.8214E-003  
  431.50  1.8296E-003  
  432.00  1.7875E-003  
  432.50  1.9059E-003  
  433.00  1.9971E-003  
  433.50  2.2346E-003  
  434.00  2.6537E-003  
  434.50  2.7847E-003  
  435.00  3.0617E-003  
  435.50  3.1768E-003  
  436.00  3.2620E-003  
  436.50  3.2163E-003  
  437.00  3.1692E-003  
  437.50  3.2711E-003  
  438.00  3.4465E-003  
  438.50  3.6150E-003  
  439.00  3.8556E-003  
  439.50  4.0906E-003  
  440.00  4.3621E-003  
  440.50  4.8513E-003  
  441.00  5.0698E-003  
  441.50  5.3072E-003  
  442.00  5.5545E-003  
  442.50  5.8113E-003  
  443.00  6.2742E-003  
  443.50  6.6215E-003  
  444.00  6.8040E-003  
  444.50  6.9280E-003  
  445.00  7.0934E-003  
  445.50  7.5954E-003  
  446.00  8.0932E-003  
  446.50  8.7002E-003  
  447.00  9.1271E-003  
  447.50  9.5009E-003  
  448.00  9.4818E-003  
  448.50  9.5344E-003  
  449.00  9.7692E-003  
  449.50  1.0107E-002  
  450.00  1.0419E-002  
  450.50  1.0238E-002  
  451.00  9.8998E-003  
  451.50  9.7984E-003  
  452.00  9.8515E-003  
  452.50  9.9016E-003  
  453.00  9.8816E-003  
  453.50  9.5611E-003  
  454.00  9.0907E-003  
  454.50  8.7242E-003  
  455.00  8.7288E-003  
  455.50  8.8040E-003  
  456.00  8.8049E-003  
  456.50  8.5668E-003  
  457.00  8.0243E-003  
  457.50  7.6074E-003  
  458.00  7.2068E-003  
  458.50  7.2017E-003  
  459.00  7.2433E-003  
  459.50  6.9942E-003  
  460.00  6.5181E-003  
  460.50  6.2181E-003  
  461.00  6.2296E-003  
  461.50  6.5121E-003  
  462.00  6.8730E-003  
  462.50  7.0831E-003  
  463.00  7.1031E-003  
  463.50  6.9034E-003  
  464.00  6.4618E-003  
  464.50  6.2882E-003  
  465.00  6.3285E-003  
  465.50  6.3212E-003  
  466.00  6.3238E-003  
  466.50  6.1164E-003  
  467.00  6.0856E-003  
  467.50  6.1571E-003  
  468.00  6.1708E-003  
  468.50  6.1366E-003  
  469.00  6.1931E-003  
  469.50  6.3125E-003  
  470.00  6.3421E-003  
  470.50  6.2976E-003  
  471.00  6.0933E-003  
  471.50  5.8419E-003  
  472.00  5.5539E-003  
  472.50  5.4484E-003  
  473.00  5.3782E-003  
  473.50  5.4447E-003  
  474.00  5.3991E-003  
  474.50  5.2609E-003  
  475.00  5.2469E-003  
  475.50  5.1709E-003  
  476.00  5.2825E-003  
  476.50  5.2082E-003  
  477.00  5.3369E-003  
  477.50  5.4715E-003  
  478.00  5.4427E-003  
  478.50  5.4154E-003  
  479.00  5.2703E-003  
  479.50  5.2585E-003  
  480.00  5.2825E-003  
  480.50  5.2977E-003  
  481.00  5.2404E-003  
  481.50  5.4352E-003  
  482.00  5.7093E-003  
  482.50  5.8949E-003  
  483.00  6.0497E-003  
  483.50  5.9639E-003  
  484.00  6.0620E-003  
  484.50  6.1394E-003  
  485.00  6.2419E-003  
  485.50  6.2079E-003  
  486.00  6.1924E-003  
  486.50  6.2963E-003  
  487.00  6.5880E-003  
  487.50  6.8840E-003  
  488.00  7.1343E-003  
  488.50  7.3297E-003  
  489.00  7.2428E-003  
  489.50  7.1224E-003  
  490.00  7.0933E-003  
  490.50  7.2014E-003  
  491.00  7.6165E-003  
  491.50  7.9306E-003  
  492.00  8.0506E-003  
  492.50  8.0954E-003  
  493.00  8.1806E-003  
  493.50  8.3412E-003  
  494.00  8.5855E-003  
  494.50  8.8168E-003  
  495.00  8.9756E-003  
  495.50  9.1691E-003  
  496.00  9.3878E-003  
  496.50  9.6746E-003  
  497.00  9.9516E-003  
  497.50  1.0176E-002  
  498.00  1.0451E-002  
  498.50  1.0736E-002  
  499.00  1.0970E-002  
  499.50  1.1122E-002  
  500.00  1.1169E-002  
  500.50  1.1247E-002  
  501.00  1.1308E-002  
  501.50  1.1546E-002  
  502.00  1.1771E-002  
  502.50  1.2136E-002  
  503.00  1.2461E-002  
  503.50  1.2807E-002  
  504.00  1.3088E-002  
  504.50  1.3292E-002  
  505.00  1.3423E-002  
  505.50  1.3602E-002  
  506.00  1.3720E-002  
  506.50  1.3799E-002  
  507.00  1.3953E-002  
  507.50  1.4233E-002  
  508.00  1.4514E-002  
  508.50  1.4770E-002  
  509.00  1.4822E-002  
  509.50  1.4850E-002  
  510.00  1.4997E-002  
  510.50  1.5234E-002  
  511.00  1.5413E-002  
  511.50  1.5660E-002  
  512.00  1.5823E-002  
  512.50  1.6131E-002  
  513.00  1.6450E-002  
  513.50  1.6561E-002  
  514.00  1.6667E-002  
  514.50  1.6930E-002  
  515.00  1.7257E-002  
  515.50  1.7634E-002  
  516.00  1.7709E-002  
  516.50  1.7691E-002  
  517.00  1.7700E-002  
  517.50  1.7822E-002  
  518.00  1.7991E-002  
  518.50  1.8171E-002  
  519.00  1.8289E-002  
  519.50  1.8386E-002  
  520.00  1.8559E-002  
  520.50  1.8869E-002  
  521.00  1.9126E-002  
  521.50  1.9346E-002  
  522.00  1.9387E-002  
  522.50  1.9431E-002  
  523.00  1.9733E-002  
  523.50  2.0151E-002  
  524.00  2.0462E-002  
  524.50  2.0613E-002  
  525.00  2.0580E-002  
  525.50  2.0708E-002  
  526.00  2.0910E-002  
  526.50  2.1177E-002  
  527.00  2.1400E-002  
  527.50  2.1572E-002  
  528.00  2.1795E-002  
  528.50  2.1975E-002  
  529.00  2.2191E-002  
  529.50  2.2307E-002  
  530.00  2.2509E-002  
  530.50  2.2840E-002  
  531.00  2.3232E-002  
  531.50  2.3578E-002  
  532.00  2.3810E-002  
  532.50  2.4010E-002  
  533.00  2.4218E-002  
  533.50  2.4479E-002  
  534.00  2.4785E-002  
  534.50  2.5006E-002  
  535.00  2.5113E-002  
  535.50  2.5249E-002  
  536.00  2.5387E-002  
  536.50  2.5789E-002  
  537.00  2.6198E-002  
  537.50  2.6599E-002  
  538.00  2.6972E-002  
  538.50  2.7226E-002  
  539.00  2.7580E-002  
  539.50  2.7845E-002  
  540.00  2.8241E-002  
  540.50  2.8591E-002  
  541.00  2.8916E-002  
  541.50  2.9191E-002  
  542.00  2.9431E-002  
  542.50  2.9638E-002  
  543.00  2.9963E-002  
  543.50  3.0384E-002  
  544.00  3.0790E-002  
  544.50  3.1282E-002  
  545.00  3.1730E-002  
  545.50  3.2137E-002  
  546.00  3.2397E-002  
  546.50  3.2679E-002  
  547.00  3.3039E-002  
  547.50  3.3445E-002  
  548.00  3.3774E-002  
  548.50  3.4111E-002  
  549.00  3.4684E-002  
  549.50  3.5240E-002  
  550.00  3.5755E-002  
  550.50  3.6165E-002  
  551.00  3.6763E-002  
  551.50  3.7354E-002  
  552.00  3.7898E-002  
  552.50  3.8262E-002  
  553.00  3.8545E-002  
  553.50  3.8901E-002  
  554.00  3.9434E-002  
  554.50  4.0222E-002  
  555.00  4.0702E-002  
  555.50  4.1214E-002  
  556.00  4.1506E-002  
  556.50  4.1966E-002  
  557.00  4.2615E-002  
  557.50  4.3300E-002  
  558.00  4.4083E-002  
  558.50  4.4748E-002  
  559.00  4.5293E-002  
  559.50  4.6046E-002  
  560.00  4.6882E-002  
  560.50  4.7696E-002  
  561.00  4.8289E-002  
  561.50  4.8928E-002  
  562.00  4.9344E-002  
  562.50  5.0115E-002  
  563.00  5.0700E-002  
  563.50  5.1552E-002  
  564.00  5.2288E-002  
  564.50  5.3111E-002  
  565.00  5.3718E-002  
  565.50  5.4153E-002  
  566.00  5.4535E-002  
  566.50  5.5243E-002  
  567.00  5.6225E-002  
  567.50  5.7250E-002  
  568.00  5.8217E-002  
  568.50  5.9029E-002  
  569.00  5.9825E-002  
  569.50  6.0368E-002  
  570.00  6.1033E-002  
  570.50  6.1675E-002  
  571.00  6.2454E-002  
  571.50  6.3286E-002  
  572.00  6.4129E-002  
  572.50  6.5046E-002  
  573.00  6.6026E-002  
  573.50  6.7012E-002  
  574.00  6.7653E-002  
  574.50  6.8336E-002  
  575.00  6.9145E-002  
  575.50  7.0240E-002  
  576.00  7.1205E-002  
  576.50  7.1879E-002  
  577.00  7.2405E-002  
  577.50  7.3112E-002  
  578.00  7.3899E-002  
  578.50  7.5016E-002  
  579.00  7.5899E-002  
  579.50  7.6658E-002  
  580.00  7.7120E-002  
  580.50  7.7816E-002  
  581.00  7.8734E-002  
  581.50  7.9649E-002  
  582.00  8.0309E-002  
  582.50  8.0568E-002  
  583.00  8.1026E-002  
  583.50  8.1738E-002  
  584.00  8.2609E-002  
  584.50  8.3497E-002  
  585.00  8.4376E-002  
  585.50  8.5096E-002  
  586.00  8.5984E-002  
  586.50  8.6280E-002  
  587.00  8.6831E-002  
  587.50  8.7391E-002  
  588.00  8.7928E-002  
  588.50  8.8465E-002  
  589.00  8.8775E-002  
  589.50  8.9063E-002  
  590.00  8.9325E-002  
  590.50  8.9915E-002  
  591.00  9.0610E-002  
  591.50  9.1798E-002  
  592.00  9.2822E-002  
  592.50  9.3684E-002  
  593.00  9.4318E-002  
  593.50  9.4809E-002  
  594.00  9.5185E-002  
  594.50  9.5612E-002  
  595.00  9.5477E-002  
  595.50  9.5586E-002  
  596.00  9.5824E-002  
  596.50  9.6035E-002  
  597.00  9.6542E-002  
  597.50  9.6618E-002  
  598.00  9.6747E-002  
  598.50  9.6766E-002  
  599.00  9.6924E-002  
  599.50  9.7055E-002  
  600.00  9.7308E-002  
  600.50  9.7517E-002  
  601.00  9.7999E-002  
  601.50  9.8225E-002  
  602.00  9.8431E-002  
  602.50  9.8499E-002  
  603.00  9.8346E-002  
  603.50  9.8097E-002  
  604.00  9.7859E-002  
  604.50  9.8093E-002  
  605.00  9.8334E-002  
  605.50  9.8646E-002  
  606.00  9.8865E-002  
  606.50  9.8889E-002  
  607.00  9.8613E-002  
  607.50  9.8433E-002  
  608.00  9.8514E-002  
  608.50  9.8612E-002  
  609.00  9.8454E-002  
  609.50  9.7951E-002  
  610.00  9.7686E-002  
  610.50  9.7513E-002  
  611.00  9.7479E-002  
  611.50  9.7547E-002  
  612.00  9.7511E-002  
  612.50  9.7286E-002  
  613.00  9.6866E-002  
  613.50  9.6549E-002  
  614.00  9.6639E-002  
  614.50  9.6537E-002  
  615.00  9.6273E-002  
  615.50  9.5610E-002  
  616.00  9.4978E-002  
  616.50  9.4548E-002  
  617.00  9.4185E-002  
  617.50  9.4158E-002  
  618.00  9.3509E-002  
  618.50  9.2836E-002  
  619.00  9.2152E-002  
  619.50  9.1787E-002  
  620.00  9.1450E-002  
  620.50  9.1098E-002  
  621.00  9.0801E-002  
  621.50  9.0456E-002  
  622.00  8.9640E-002  
  622.50  8.8925E-002  
  623.00  8.8376E-002  
  623.50  8.7864E-002  
  624.00  8.7083E-002  
  624.50  8.6103E-002  
  625.00  8.5537E-002  
  625.50  8.4935E-002  
  626.00  8.4327E-002  
  626.50  8.3824E-002  
  627.00  8.3467E-002  
  627.50  8.3225E-002  
  628.00  8.2557E-002  
  628.50  8.1980E-002  
  629.00  8.1439E-002  
  629.50  8.1066E-002  
  630.00  8.0395E-002  
  630.50  7.9287E-002  
  631.00  7.8391E-002  
  631.50  7.7847E-002  
  632.00  7.7599E-002  
  632.50  7.7072E-002  
  633.00  7.6553E-002  
  633.50  7.5888E-002  
  634.00  7.5450E-002  
  634.50  7.4533E-002  
  635.00  7.3815E-002  
  635.50  7.2827E-002  
  636.00  7.2173E-002  
  636.50  7.1584E-002  
  637.00  7.0933E-002  
  637.50  7.0188E-002  
  638.00  6.9462E-002  
  638.50  6.8999E-002  
  639.00  6.8201E-002  
  639.50  6.7303E-002  
  640.00  6.6530E-002  
  640.50  6.6050E-002  
  641.00  6.5600E-002  
  641.50  6.5191E-002  
  642.00  6.4693E-002  
  642.50  6.4091E-002  
  643.00  6.3208E-002  
  643.50  6.2414E-002  
  644.00  6.1776E-002  
  644.50  6.1148E-002  
  645.00  6.0193E-002  
  645.50  5.9289E-002  
  646.00  5.8489E-002  
  646.50  5.8174E-002  
  647.00  5.7978E-002  
  647.50  5.7452E-002  
  648.00  5.6932E-002  
  648.50  5.6129E-002  
  649.00  5.5620E-002  
  649.50  5.4739E-002  
  650.00  5.4025E-002  
  650.50  5.3449E-002  
  651.00  5.2948E-002  
  651.50  5.2362E-002  
  652.00  5.1878E-002  
  652.50  5.1336E-002  
  653.00  5.0669E-002  
  653.50  4.9776E-002  
  654.00  4.9208E-002  
  654.50  4.8727E-002  
  655.00  4.8137E-002  
  655.50  4.7191E-002  
  656.00  4.6160E-002  
  656.50  4.5536E-002  
  657.00  4.5416E-002  
  657.50  4.5374E-002  
  658.00  4.4965E-002  
  658.50  4.4225E-002  
  659.00  4.3709E-002  
  659.50  4.3054E-002  
  660.00  4.2542E-002  
  660.50  4.2053E-002  
  661.00  4.1639E-002  
  661.50  4.1081E-002  
  662.00  4.0227E-002  
  662.50  3.9428E-002  
  663.00  3.8769E-002  
  663.50  3.8121E-002  
  664.00  3.7467E-002  
  664.50  3.6999E-002  
  665.00  3.6659E-002  
  665.50  3.6340E-002  
  666.00  3.5601E-002  
  666.50  3.5010E-002  
  667.00  3.4273E-002  
  667.50  3.3613E-002  
  668.00  3.3048E-002  
  668.50  3.2990E-002  
  669.00  3.2780E-002  
  669.50  3.2239E-002  
  670.00  3.1301E-002  
  670.50  3.0945E-002  
  671.00  3.0730E-002  
  671.50  3.0449E-002  
  672.00  2.9820E-002  
  672.50  2.9168E-002  
  673.00  2.8723E-002  
  673.50  2.8544E-002  
  674.00  2.8132E-002  
  674.50  2.7544E-002  
  675.00  2.6708E-002  
  675.50  2.6206E-002  
  676.00  2.6171E-002  
  676.50  2.6073E-002  
  677.00  2.5905E-002  
  677.50  2.5340E-002  
  678.00  2.4834E-002  
  678.50  2.4382E-002  
  679.00  2.4194E-002  
  679.50  2.3944E-002  
  680.00  2.3538E-002  
  680.50  2.3219E-002  
  681.00  2.2752E-002  
