
# From lspdd.org
# 
# Name: LED-Lot5-L3 QCPassed A19 -
# Indice spectral Valeur 
# MSI 0.05 
# SLI 0.19 
# IPI 0.83 
# Pourcentage de bleu 2.1 
# Caractéristique Valeur 
# CCT calculée (K) 1513 
# CCT du fabricant (K) 1500 
# Tension (V) 100 
# Puissance (W) 7.0 
# Efficacité lumineuse (Lum/W) ND 
#
# Image: '/app/system/img_1s/2783/medium_image1.JPG?1633620759'
# 

  273.00  0.0000E+000  
  273.50  0.0000E+000  
  274.00  0.0000E+000  
  274.50  0.0000E+000  
  275.00  0.0000E+000  
  275.50  0.0000E+000  
  276.00  0.0000E+000  
  276.50  0.0000E+000  
  277.00  0.0000E+000  
  277.50  0.0000E+000  
  278.00  0.0000E+000  
  278.50  0.0000E+000  
  279.00  0.0000E+000  
  279.50  0.0000E+000  
  280.00  0.0000E+000  
  280.50  0.0000E+000  
  281.00  0.0000E+000  
  281.50  0.0000E+000  
  282.00  0.0000E+000  
  282.50  0.0000E+000  
  283.00  0.0000E+000  
  283.50  0.0000E+000  
  284.00  0.0000E+000  
  284.50  0.0000E+000  
  285.00  0.0000E+000  
  285.50  0.0000E+000  
  286.00  0.0000E+000  
  286.50  0.0000E+000  
  287.00  0.0000E+000  
  287.50  0.0000E+000  
  288.00  0.0000E+000  
  288.50  0.0000E+000  
  289.00  0.0000E+000  
  289.50  0.0000E+000  
  290.00  0.0000E+000  
  290.50  0.0000E+000  
  291.00  0.0000E+000  
  291.50  0.0000E+000  
  292.00  0.0000E+000  
  292.50  0.0000E+000  
  293.00  0.0000E+000  
  293.50  0.0000E+000  
  294.00  0.0000E+000  
  294.50  0.0000E+000  
  295.00  0.0000E+000  
  295.50  0.0000E+000  
  296.00  0.0000E+000  
  296.50  0.0000E+000  
  297.00  0.0000E+000  
  297.50  0.0000E+000  
  298.00  0.0000E+000  
  298.50  0.0000E+000  
  299.00  0.0000E+000  
  299.50  0.0000E+000  
  300.00  0.0000E+000  
  300.50  0.0000E+000  
  301.00  0.0000E+000  
  301.50  0.0000E+000  
  302.00  0.0000E+000  
  302.50  0.0000E+000  
  303.00  0.0000E+000  
  303.50  0.0000E+000  
  304.00  0.0000E+000  
  304.50  0.0000E+000  
  305.00  0.0000E+000  
  305.50  0.0000E+000  
  306.00  0.0000E+000  
  306.50  0.0000E+000  
  307.00  0.0000E+000  
  307.50  0.0000E+000  
  308.00  0.0000E+000  
  308.50  0.0000E+000  
  309.00  0.0000E+000  
  309.50  1.5984E-004  
  310.00  1.3622E-004  
  310.50  8.7688E-006  
  311.00  0.0000E+000  
  311.50  0.0000E+000  
  312.00  0.0000E+000  
  312.50  0.0000E+000  
  313.00  0.0000E+000  
  313.50  0.0000E+000  
  314.00  0.0000E+000  
  314.50  0.0000E+000  
  315.00  0.0000E+000  
  315.50  0.0000E+000  
  316.00  0.0000E+000  
  316.50  0.0000E+000  
  317.00  0.0000E+000  
  317.50  0.0000E+000  
  318.00  0.0000E+000  
  318.50  0.0000E+000  
  319.00  0.0000E+000  
  319.50  0.0000E+000  
  320.00  0.0000E+000  
  320.50  0.0000E+000  
  321.00  0.0000E+000  
  321.50  0.0000E+000  
  322.00  0.0000E+000  
  322.50  0.0000E+000  
  323.00  0.0000E+000  
  323.50  0.0000E+000  
  324.00  0.0000E+000  
  324.50  0.0000E+000  
  325.00  0.0000E+000  
  325.50  0.0000E+000  
  326.00  0.0000E+000  
  326.50  0.0000E+000  
  327.00  0.0000E+000  
  327.50  0.0000E+000  
  328.00  0.0000E+000  
  328.50  0.0000E+000  
  329.00  0.0000E+000  
  329.50  0.0000E+000  
  330.00  0.0000E+000  
  330.50  0.0000E+000  
  331.00  0.0000E+000  
  331.50  0.0000E+000  
  332.00  0.0000E+000  
  332.50  0.0000E+000  
  333.00  0.0000E+000  
  333.50  0.0000E+000  
  334.00  0.0000E+000  
  334.50  0.0000E+000  
  335.00  0.0000E+000  
  335.50  0.0000E+000  
  336.00  0.0000E+000  
  336.50  0.0000E+000  
  337.00  0.0000E+000  
  337.50  0.0000E+000  
  338.00  0.0000E+000  
  338.50  0.0000E+000  
  339.00  0.0000E+000  
  339.50  0.0000E+000  
  340.00  0.0000E+000  
  340.50  0.0000E+000  
  341.00  0.0000E+000  
  341.50  0.0000E+000  
  342.00  0.0000E+000  
  342.50  0.0000E+000  
  343.00  0.0000E+000  
  343.50  0.0000E+000  
  344.00  0.0000E+000  
  344.50  0.0000E+000  
  345.00  0.0000E+000  
  345.50  0.0000E+000  
  346.00  0.0000E+000  
  346.50  0.0000E+000  
  347.00  0.0000E+000  
  347.50  0.0000E+000  
  348.00  0.0000E+000  
  348.50  0.0000E+000  
  349.00  0.0000E+000  
  349.50  0.0000E+000  
  350.00  0.0000E+000  
  350.50  0.0000E+000  
  351.00  0.0000E+000  
  351.50  0.0000E+000  
  352.00  0.0000E+000  
  352.50  0.0000E+000  
  353.00  0.0000E+000  
  353.50  0.0000E+000  
  354.00  0.0000E+000  
  354.50  0.0000E+000  
  355.00  0.0000E+000  
  355.50  0.0000E+000  
  356.00  0.0000E+000  
  356.50  0.0000E+000  
  357.00  0.0000E+000  
  357.50  0.0000E+000  
  358.00  0.0000E+000  
  358.50  0.0000E+000  
  359.00  0.0000E+000  
  359.50  0.0000E+000  
  360.00  0.0000E+000  
  360.50  0.0000E+000  
  361.00  0.0000E+000  
  361.50  0.0000E+000  
  362.00  0.0000E+000  
  362.50  0.0000E+000  
  363.00  0.0000E+000  
  363.50  0.0000E+000  
  364.00  0.0000E+000  
  364.50  0.0000E+000  
  365.00  0.0000E+000  
  365.50  0.0000E+000  
  366.00  0.0000E+000  
  366.50  0.0000E+000  
  367.00  0.0000E+000  
  367.50  0.0000E+000  
  368.00  0.0000E+000  
  368.50  0.0000E+000  
  369.00  0.0000E+000  
  369.50  0.0000E+000  
  370.00  0.0000E+000  
  370.50  0.0000E+000  
  371.00  0.0000E+000  
  371.50  0.0000E+000  
  372.00  0.0000E+000  
  372.50  0.0000E+000  
  373.00  0.0000E+000  
  373.50  0.0000E+000  
  374.00  0.0000E+000  
  374.50  0.0000E+000  
  375.00  0.0000E+000  
  375.50  0.0000E+000  
  376.00  0.0000E+000  
  376.50  0.0000E+000  
  377.00  0.0000E+000  
  377.50  0.0000E+000  
  378.00  0.0000E+000  
  378.50  0.0000E+000  
  379.00  0.0000E+000  
  379.50  0.0000E+000  
  380.00  0.0000E+000  
  380.50  0.0000E+000  
  381.00  0.0000E+000  
  381.50  0.0000E+000  
  382.00  0.0000E+000  
  382.50  0.0000E+000  
  383.00  0.0000E+000  
  383.50  0.0000E+000  
  384.00  0.0000E+000  
  384.50  0.0000E+000  
  385.00  0.0000E+000  
  385.50  0.0000E+000  
  386.00  0.0000E+000  
  386.50  0.0000E+000  
  387.00  0.0000E+000  
  387.50  0.0000E+000  
  388.00  0.0000E+000  
  388.50  0.0000E+000  
  389.00  0.0000E+000  
  389.50  0.0000E+000  
  390.00  0.0000E+000  
  390.50  0.0000E+000  
  391.00  0.0000E+000  
  391.50  0.0000E+000  
  392.00  0.0000E+000  
  392.50  0.0000E+000  
  393.00  0.0000E+000  
  393.50  0.0000E+000  
  394.00  0.0000E+000  
  394.50  0.0000E+000  
  395.00  0.0000E+000  
  395.50  0.0000E+000  
  396.00  0.0000E+000  
  396.50  0.0000E+000  
  397.00  0.0000E+000  
  397.50  0.0000E+000  
  398.00  0.0000E+000  
  398.50  0.0000E+000  
  399.00  0.0000E+000  
  399.50  0.0000E+000  
  400.00  0.0000E+000  
  400.50  0.0000E+000  
  401.00  0.0000E+000  
  401.50  0.0000E+000  
  402.00  0.0000E+000  
  402.50  0.0000E+000  
  403.00  0.0000E+000  
  403.50  0.0000E+000  
  404.00  0.0000E+000  
  404.50  0.0000E+000  
  405.00  0.0000E+000  
  405.50  0.0000E+000  
  406.00  0.0000E+000  
  406.50  0.0000E+000  
  407.00  0.0000E+000  
  407.50  0.0000E+000  
  408.00  0.0000E+000  
  408.50  0.0000E+000  
  409.00  0.0000E+000  
  409.50  0.0000E+000  
  410.00  0.0000E+000  
  410.50  0.0000E+000  
  411.00  0.0000E+000  
  411.50  0.0000E+000  
  412.00  0.0000E+000  
  412.50  0.0000E+000  
  413.00  0.0000E+000  
  413.50  0.0000E+000  
  414.00  1.1676E-004  
  414.50  8.9274E-005  
  415.00  0.0000E+000  
  415.50  0.0000E+000  
  416.00  0.0000E+000  
  416.50  0.0000E+000  
  417.00  0.0000E+000  
  417.50  0.0000E+000  
  418.00  0.0000E+000  
  418.50  0.0000E+000  
  419.00  0.0000E+000  
  419.50  0.0000E+000  
  420.00  0.0000E+000  
  420.50  0.0000E+000  
  421.00  0.0000E+000  
  421.50  0.0000E+000  
  422.00  2.8125E-005  
  422.50  3.0388E-004  
  423.00  5.0322E-004  
  423.50  2.9269E-004  
  424.00  1.3327E-004  
  424.50  0.0000E+000  
  425.00  0.0000E+000  
  425.50  3.7071E-005  
  426.00  1.8624E-004  
  426.50  3.7200E-004  
  427.00  3.1162E-004  
  427.50  2.7182E-004  
  428.00  2.5251E-004  
  428.50  2.3893E-004  
  429.00  3.2995E-004  
  429.50  1.6157E-004  
  430.00  0.0000E+000  
  430.50  0.0000E+000  
  431.00  8.8127E-005  
  431.50  3.8129E-004  
  432.00  5.0474E-004  
  432.50  6.1591E-004  
  433.00  5.8710E-004  
  433.50  5.6204E-004  
  434.00  4.7425E-004  
  434.50  3.4967E-004  
  435.00  3.0555E-004  
  435.50  4.4112E-004  
  436.00  7.7098E-004  
  436.50  1.0835E-003  
  437.00  1.1357E-003  
  437.50  8.0800E-004  
  438.00  5.2445E-004  
  438.50  2.6571E-004  
  439.00  2.0205E-004  
  439.50  3.2852E-004  
  440.00  3.8558E-004  
  440.50  5.6611E-004  
  441.00  5.6934E-004  
  441.50  5.2640E-004  
  442.00  5.2926E-004  
  442.50  6.3417E-004  
  443.00  8.6100E-004  
  443.50  7.7407E-004  
  444.00  7.7927E-004  
  444.50  7.8395E-004  
  445.00  8.4844E-004  
  445.50  1.0935E-003  
  446.00  9.7532E-004  
  446.50  8.9347E-004  
  447.00  6.7663E-004  
  447.50  5.4885E-004  
  448.00  4.1142E-004  
  448.50  3.3884E-004  
  449.00  4.1038E-004  
  449.50  4.0591E-004  
  450.00  4.6640E-004  
  450.50  3.6372E-004  
  451.00  6.9997E-005  
  451.50  4.6266E-006  
  452.00  6.2340E-005  
  452.50  1.2654E-004  
  453.00  1.4309E-004  
  453.50  0.0000E+000  
  454.00  0.0000E+000  
  454.50  0.0000E+000  
  455.00  0.0000E+000  
  455.50  0.0000E+000  
  456.00  0.0000E+000  
  456.50  0.0000E+000  
  457.00  0.0000E+000  
  457.50  0.0000E+000  
  458.00  0.0000E+000  
  458.50  0.0000E+000  
  459.00  0.0000E+000  
  459.50  1.2712E-005  
  460.00  1.4195E-004  
  460.50  1.6764E-004  
  461.00  9.5806E-006  
  461.50  0.0000E+000  
  462.00  0.0000E+000  
  462.50  0.0000E+000  
  463.00  2.8546E-006  
  463.50  1.1975E-004  
  464.00  4.3665E-004  
  464.50  5.1100E-004  
  465.00  5.1192E-004  
  465.50  5.4415E-004  
  466.00  2.6261E-004  
  466.50  2.4514E-006  
  467.00  0.0000E+000  
  467.50  0.0000E+000  
  468.00  0.0000E+000  
  468.50  0.0000E+000  
  469.00  0.0000E+000  
  469.50  0.0000E+000  
  470.00  0.0000E+000  
  470.50  0.0000E+000  
  471.00  0.0000E+000  
  471.50  0.0000E+000  
  472.00  0.0000E+000  
  472.50  0.0000E+000  
  473.00  1.1711E-006  
  473.50  6.4265E-005  
  474.00  8.7745E-005  
  474.50  4.6406E-005  
  475.00  0.0000E+000  
  475.50  0.0000E+000  
  476.00  0.0000E+000  
  476.50  0.0000E+000  
  477.00  0.0000E+000  
  477.50  0.0000E+000  
  478.00  0.0000E+000  
  478.50  4.7273E-006  
  479.00  7.2691E-005  
  479.50  4.4797E-005  
  480.00  5.0727E-005  
  480.50  2.9126E-006  
  481.00  0.0000E+000  
  481.50  0.0000E+000  
  482.00  0.0000E+000  
  482.50  3.9220E-006  
  483.00  1.1587E-004  
  483.50  1.3692E-004  
  484.00  5.8885E-005  
  484.50  0.0000E+000  
  485.00  0.0000E+000  
  485.50  0.0000E+000  
  486.00  0.0000E+000  
  486.50  0.0000E+000  
  487.00  0.0000E+000  
  487.50  6.6881E-005  
  488.00  1.8525E-004  
  488.50  2.3680E-004  
  489.00  2.0154E-004  
  489.50  2.2309E-004  
  490.00  1.8338E-004  
  490.50  2.5159E-004  
  491.00  3.2638E-004  
  491.50  4.4924E-004  
  492.00  4.4358E-004  
  492.50  3.4477E-004  
  493.00  3.4892E-004  
  493.50  3.8113E-004  
  494.00  5.4730E-004  
  494.50  6.5568E-004  
  495.00  6.9975E-004  
  495.50  7.6606E-004  
  496.00  8.2338E-004  
  496.50  1.0336E-003  
  497.00  1.2141E-003  
  497.50  1.2597E-003  
  498.00  1.2261E-003  
  498.50  1.0483E-003  
  499.00  9.8064E-004  
  499.50  1.0962E-003  
  500.00  1.3311E-003  
  500.50  1.6444E-003  
  501.00  1.8297E-003  
  501.50  1.7759E-003  
  502.00  1.8092E-003  
  502.50  1.8659E-003  
  503.00  1.9360E-003  
  503.50  2.0243E-003  
  504.00  2.1236E-003  
  504.50  2.2392E-003  
  505.00  2.4168E-003  
  505.50  2.4891E-003  
  506.00  2.5537E-003  
  506.50  2.5865E-003  
  507.00  2.7099E-003  
  507.50  2.8629E-003  
  508.00  3.2028E-003  
  508.50  3.5094E-003  
  509.00  3.7290E-003  
  509.50  3.7379E-003  
  510.00  3.6638E-003  
  510.50  3.7394E-003  
  511.00  3.9204E-003  
  511.50  4.2630E-003  
  512.00  4.5888E-003  
  512.50  4.8613E-003  
  513.00  4.9703E-003  
  513.50  4.9593E-003  
  514.00  4.9874E-003  
  514.50  5.0843E-003  
  515.00  5.2226E-003  
  515.50  5.4293E-003  
  516.00  5.6136E-003  
  516.50  5.7845E-003  
  517.00  5.8865E-003  
  517.50  5.9675E-003  
  518.00  6.0845E-003  
  518.50  6.2141E-003  
  519.00  6.3508E-003  
  519.50  6.4325E-003  
  520.00  6.5312E-003  
  520.50  6.7400E-003  
  521.00  6.9939E-003  
  521.50  7.3248E-003  
  522.00  7.4784E-003  
  522.50  7.5080E-003  
  523.00  7.4786E-003  
  523.50  7.7656E-003  
  524.00  8.0054E-003  
  524.50  8.2549E-003  
  525.00  8.3431E-003  
  525.50  8.3761E-003  
  526.00  8.4280E-003  
  526.50  8.5274E-003  
  527.00  8.6873E-003  
  527.50  8.9557E-003  
  528.00  9.1751E-003  
  528.50  9.3186E-003  
  529.00  9.4474E-003  
  529.50  9.5314E-003  
  530.00  9.6307E-003  
  530.50  9.7853E-003  
  531.00  1.0073E-002  
  531.50  1.0250E-002  
  532.00  1.0202E-002  
  532.50  1.0050E-002  
  533.00  9.9616E-003  
  533.50  1.0170E-002  
  534.00  1.0574E-002  
  534.50  1.0812E-002  
  535.00  1.0931E-002  
  535.50  1.0869E-002  
  536.00  1.0784E-002  
  536.50  1.0875E-002  
  537.00  1.1119E-002  
  537.50  1.1288E-002  
  538.00  1.1384E-002  
  538.50  1.1543E-002  
  539.00  1.1810E-002  
  539.50  1.2131E-002  
  540.00  1.2326E-002  
  540.50  1.2449E-002  
  541.00  1.2610E-002  
  541.50  1.2769E-002  
  542.00  1.2803E-002  
  542.50  1.2843E-002  
  543.00  1.2920E-002  
  543.50  1.3061E-002  
  544.00  1.3314E-002  
  544.50  1.3522E-002  
  545.00  1.3788E-002  
  545.50  1.3998E-002  
  546.00  1.4116E-002  
  546.50  1.4176E-002  
  547.00  1.4307E-002  
  547.50  1.4404E-002  
  548.00  1.4666E-002  
  548.50  1.4984E-002  
  549.00  1.5345E-002  
  549.50  1.5722E-002  
  550.00  1.5889E-002  
  550.50  1.5967E-002  
  551.00  1.5922E-002  
  551.50  1.5866E-002  
  552.00  1.6130E-002  
  552.50  1.6464E-002  
  553.00  1.6805E-002  
  553.50  1.7015E-002  
  554.00  1.7271E-002  
  554.50  1.7521E-002  
  555.00  1.7866E-002  
  555.50  1.8008E-002  
  556.00  1.8064E-002  
  556.50  1.8334E-002  
  557.00  1.8633E-002  
  557.50  1.9145E-002  
  558.00  1.9558E-002  
  558.50  1.9869E-002  
  559.00  2.0174E-002  
  559.50  2.0428E-002  
  560.00  2.0788E-002  
  560.50  2.1168E-002  
  561.00  2.1587E-002  
  561.50  2.1968E-002  
  562.00  2.2295E-002  
  562.50  2.2598E-002  
  563.00  2.3002E-002  
  563.50  2.3446E-002  
  564.00  2.3932E-002  
  564.50  2.4368E-002  
  565.00  2.4933E-002  
  565.50  2.5531E-002  
  566.00  2.6113E-002  
  566.50  2.6456E-002  
  567.00  2.6665E-002  
  567.50  2.7011E-002  
  568.00  2.7261E-002  
  568.50  2.7807E-002  
  569.00  2.8404E-002  
  569.50  2.9179E-002  
  570.00  2.9800E-002  
  570.50  3.0098E-002  
  571.00  3.0482E-002  
  571.50  3.0925E-002  
  572.00  3.1563E-002  
  572.50  3.2154E-002  
  573.00  3.2765E-002  
  573.50  3.3434E-002  
  574.00  3.4250E-002  
  574.50  3.5028E-002  
  575.00  3.5791E-002  
  575.50  3.6485E-002  
  576.00  3.7106E-002  
  576.50  3.7865E-002  
  577.00  3.8556E-002  
  577.50  3.9358E-002  
  578.00  4.0023E-002  
  578.50  4.0524E-002  
  579.00  4.0982E-002  
  579.50  4.1543E-002  
  580.00  4.2450E-002  
  580.50  4.3421E-002  
  581.00  4.4334E-002  
  581.50  4.5032E-002  
  582.00  4.5668E-002  
  582.50  4.6523E-002  
  583.00  4.7448E-002  
  583.50  4.8297E-002  
  584.00  4.8856E-002  
  584.50  4.9452E-002  
  585.00  5.0281E-002  
  585.50  5.1017E-002  
  586.00  5.1831E-002  
  586.50  5.2423E-002  
  587.00  5.3472E-002  
  587.50  5.4500E-002  
  588.00  5.5523E-002  
  588.50  5.6464E-002  
  589.00  5.7249E-002  
  589.50  5.8104E-002  
  590.00  5.8875E-002  
  590.50  5.9812E-002  
  591.00  6.0717E-002  
  591.50  6.1594E-002  
  592.00  6.2314E-002  
  592.50  6.3152E-002  
  593.00  6.4066E-002  
  593.50  6.4901E-002  
  594.00  6.5793E-002  
  594.50  6.6450E-002  
  595.00  6.7020E-002  
  595.50  6.7526E-002  
  596.00  6.8350E-002  
  596.50  6.9488E-002  
  597.00  7.0597E-002  
  597.50  7.1231E-002  
  598.00  7.1776E-002  
  598.50  7.2334E-002  
  599.00  7.3129E-002  
  599.50  7.3944E-002  
  600.00  7.4536E-002  
  600.50  7.5204E-002  
  601.00  7.5749E-002  
  601.50  7.6320E-002  
  602.00  7.6817E-002  
  602.50  7.7522E-002  
  603.00  7.8010E-002  
  603.50  7.8615E-002  
  604.00  7.9028E-002  
  604.50  7.9770E-002  
  605.00  8.0247E-002  
  605.50  8.0663E-002  
  606.00  8.0956E-002  
  606.50  8.1448E-002  
  607.00  8.2013E-002  
  607.50  8.2460E-002  
  608.00  8.2874E-002  
  608.50  8.2974E-002  
  609.00  8.3151E-002  
  609.50  8.3676E-002  
  610.00  8.4494E-002  
  610.50  8.5309E-002  
  611.00  8.5623E-002  
  611.50  8.5880E-002  
  612.00  8.5986E-002  
  612.50  8.6024E-002  
  613.00  8.6032E-002  
  613.50  8.6186E-002  
  614.00  8.6589E-002  
  614.50  8.6833E-002  
  615.00  8.6952E-002  
  615.50  8.6747E-002  
  616.00  8.6520E-002  
  616.50  8.6457E-002  
  617.00  8.6407E-002  
  617.50  8.6481E-002  
  618.00  8.6561E-002  
  618.50  8.6630E-002  
  619.00  8.6530E-002  
  619.50  8.6232E-002  
  620.00  8.6012E-002  
  620.50  8.5854E-002  
  621.00  8.6408E-002  
  621.50  8.6659E-002  
  622.00  8.6698E-002  
  622.50  8.6143E-002  
  623.00  8.5530E-002  
  623.50  8.5624E-002  
  624.00  8.5744E-002  
  624.50  8.6041E-002  
  625.00  8.5844E-002  
  625.50  8.5524E-002  
  626.00  8.5299E-002  
  626.50  8.5249E-002  
  627.00  8.4863E-002  
  627.50  8.4156E-002  
  628.00  8.3388E-002  
  628.50  8.3142E-002  
  629.00  8.2711E-002  
  629.50  8.2258E-002  
  630.00  8.2018E-002  
  630.50  8.2090E-002  
  631.00  8.2458E-002  
  631.50  8.2497E-002  
  632.00  8.2234E-002  
  632.50  8.1284E-002  
  633.00  8.0276E-002  
  633.50  7.9663E-002  
  634.00  7.9549E-002  
  634.50  7.9317E-002  
  635.00  7.8745E-002  
  635.50  7.8015E-002  
  636.00  7.7550E-002  
  636.50  7.7031E-002  
  637.00  7.6292E-002  
  637.50  7.5352E-002  
  638.00  7.4827E-002  
  638.50  7.4559E-002  
  639.00  7.4356E-002  
  639.50  7.4161E-002  
  640.00  7.3761E-002  
  640.50  7.3347E-002  
  641.00  7.2742E-002  
  641.50  7.2116E-002  
  642.00  7.1820E-002  
  642.50  7.1431E-002  
  643.00  7.0999E-002  
  643.50  7.0582E-002  
  644.00  6.9926E-002  
  644.50  6.9423E-002  
  645.00  6.8569E-002  
  645.50  6.7995E-002  
  646.00  6.7372E-002  
  646.50  6.7083E-002  
  647.00  6.6549E-002  
  647.50  6.6108E-002  
  648.00  6.5160E-002  
  648.50  6.4642E-002  
  649.00  6.4114E-002  
  649.50  6.3739E-002  
  650.00  6.3360E-002  
  650.50  6.3240E-002  
  651.00  6.2717E-002  
  651.50  6.1803E-002  
  652.00  6.1096E-002  
  652.50  6.0284E-002  
  653.00  5.9838E-002  
  653.50  5.9150E-002  
  654.00  5.8900E-002  
  654.50  5.8405E-002  
  655.00  5.7874E-002  
  655.50  5.7114E-002  
  656.00  5.6361E-002  
  656.50  5.5490E-002  
  657.00  5.4882E-002  
  657.50  5.4452E-002  
  658.00  5.4028E-002  
  658.50  5.3391E-002  
  659.00  5.2737E-002  
  659.50  5.1914E-002  
  660.00  5.1291E-002  
  660.50  5.0701E-002  
  661.00  5.0367E-002  
  661.50  5.0015E-002  
  662.00  4.9305E-002  
  662.50  4.8810E-002  
  663.00  4.8252E-002  
  663.50  4.7822E-002  
  664.00  4.6961E-002  
  664.50  4.6183E-002  
  665.00  4.5696E-002  
  665.50  4.5190E-002  
  666.00  4.4610E-002  
  666.50  4.3717E-002  
  667.00  4.3053E-002  
  667.50  4.2435E-002  
  668.00  4.2068E-002  
  668.50  4.1467E-002  
  669.00  4.1349E-002  
  669.50  4.0884E-002  
  670.00  4.0377E-002  
  670.50  3.9752E-002  
  671.00  3.9124E-002  
  671.50  3.8659E-002  
  672.00  3.8147E-002  
  672.50  3.7774E-002  
  673.00  3.7253E-002  
  673.50  3.6611E-002  
  674.00  3.5965E-002  
  674.50  3.5401E-002  
  675.00  3.5268E-002  
  675.50  3.5097E-002  
  676.00  3.4799E-002  
  676.50  3.3833E-002  
  677.00  3.3335E-002  
  677.50  3.2934E-002  
  678.00  3.2553E-002  
  678.50  3.1885E-002  
  679.00  3.1517E-002  
  679.50  3.1165E-002  
  680.00  3.0642E-002  
  680.50  2.9787E-002  
  681.00  2.9188E-002  
