
# From lspdd.org
# 
# Name: LED-Lot2-L3 QCPassed A19 -
# Indice spectral Valeur 
# MSI 0.06 
# SLI 0.19 
# IPI 0.83 
# Pourcentage de bleu 2.4 
# Caractéristique Valeur 
# CCT calculée (K) 1523 
# CCT du fabricant (K) 1500 
# Tension (V) 100 
# Puissance (W) 7.0 
# Efficacité lumineuse (Lum/W) ND 
#
# Image: '/app/system/img_1s/2784/medium_image1.JPG?1633620760'
# 

  273.00  0.0000E+000  
  273.50  0.0000E+000  
  274.00  0.0000E+000  
  274.50  0.0000E+000  
  275.00  0.0000E+000  
  275.50  0.0000E+000  
  276.00  0.0000E+000  
  276.50  0.0000E+000  
  277.00  0.0000E+000  
  277.50  0.0000E+000  
  278.00  0.0000E+000  
  278.50  0.0000E+000  
  279.00  0.0000E+000  
  279.50  0.0000E+000  
  280.00  0.0000E+000  
  280.50  0.0000E+000  
  281.00  0.0000E+000  
  281.50  0.0000E+000  
  282.00  0.0000E+000  
  282.50  0.0000E+000  
  283.00  0.0000E+000  
  283.50  0.0000E+000  
  284.00  0.0000E+000  
  284.50  0.0000E+000  
  285.00  0.0000E+000  
  285.50  0.0000E+000  
  286.00  0.0000E+000  
  286.50  0.0000E+000  
  287.00  0.0000E+000  
  287.50  0.0000E+000  
  288.00  0.0000E+000  
  288.50  0.0000E+000  
  289.00  0.0000E+000  
  289.50  0.0000E+000  
  290.00  0.0000E+000  
  290.50  0.0000E+000  
  291.00  0.0000E+000  
  291.50  0.0000E+000  
  292.00  0.0000E+000  
  292.50  0.0000E+000  
  293.00  0.0000E+000  
  293.50  0.0000E+000  
  294.00  0.0000E+000  
  294.50  0.0000E+000  
  295.00  0.0000E+000  
  295.50  0.0000E+000  
  296.00  0.0000E+000  
  296.50  0.0000E+000  
  297.00  0.0000E+000  
  297.50  0.0000E+000  
  298.00  0.0000E+000  
  298.50  0.0000E+000  
  299.00  0.0000E+000  
  299.50  0.0000E+000  
  300.00  0.0000E+000  
  300.50  1.3648E-005  
  301.00  5.5681E-005  
  301.50  1.5629E-005  
  302.00  1.2461E-004  
  302.50  2.1120E-005  
  303.00  0.0000E+000  
  303.50  0.0000E+000  
  304.00  0.0000E+000  
  304.50  3.0030E-004  
  305.00  4.9678E-004  
  305.50  4.1809E-004  
  306.00  2.4372E-004  
  306.50  0.0000E+000  
  307.00  0.0000E+000  
  307.50  1.1176E-004  
  308.00  2.4520E-004  
  308.50  2.7958E-004  
  309.00  2.0233E-004  
  309.50  3.1468E-004  
  310.00  1.1860E-004  
  310.50  2.0880E-006  
  311.00  0.0000E+000  
  311.50  0.0000E+000  
  312.00  0.0000E+000  
  312.50  0.0000E+000  
  313.00  0.0000E+000  
  313.50  0.0000E+000  
  314.00  0.0000E+000  
  314.50  0.0000E+000  
  315.00  0.0000E+000  
  315.50  0.0000E+000  
  316.00  5.9989E-005  
  316.50  1.9433E-004  
  317.00  4.0300E-005  
  317.50  0.0000E+000  
  318.00  0.0000E+000  
  318.50  0.0000E+000  
  319.00  0.0000E+000  
  319.50  0.0000E+000  
  320.00  0.0000E+000  
  320.50  0.0000E+000  
  321.00  0.0000E+000  
  321.50  0.0000E+000  
  322.00  0.0000E+000  
  322.50  0.0000E+000  
  323.00  0.0000E+000  
  323.50  0.0000E+000  
  324.00  0.0000E+000  
  324.50  0.0000E+000  
  325.00  0.0000E+000  
  325.50  0.0000E+000  
  326.00  0.0000E+000  
  326.50  0.0000E+000  
  327.00  0.0000E+000  
  327.50  0.0000E+000  
  328.00  4.1798E-005  
  328.50  3.2367E-004  
  329.00  3.6605E-004  
  329.50  1.1338E-004  
  330.00  0.0000E+000  
  330.50  0.0000E+000  
  331.00  0.0000E+000  
  331.50  0.0000E+000  
  332.00  0.0000E+000  
  332.50  0.0000E+000  
  333.00  0.0000E+000  
  333.50  0.0000E+000  
  334.00  0.0000E+000  
  334.50  0.0000E+000  
  335.00  0.0000E+000  
  335.50  0.0000E+000  
  336.00  0.0000E+000  
  336.50  0.0000E+000  
  337.00  0.0000E+000  
  337.50  0.0000E+000  
  338.00  0.0000E+000  
  338.50  0.0000E+000  
  339.00  0.0000E+000  
  339.50  0.0000E+000  
  340.00  0.0000E+000  
  340.50  0.0000E+000  
  341.00  8.4239E-006  
  341.50  1.0575E-005  
  342.00  0.0000E+000  
  342.50  0.0000E+000  
  343.00  0.0000E+000  
  343.50  0.0000E+000  
  344.00  0.0000E+000  
  344.50  0.0000E+000  
  345.00  0.0000E+000  
  345.50  0.0000E+000  
  346.00  0.0000E+000  
  346.50  0.0000E+000  
  347.00  1.4647E-005  
  347.50  0.0000E+000  
  348.00  0.0000E+000  
  348.50  0.0000E+000  
  349.00  0.0000E+000  
  349.50  0.0000E+000  
  350.00  0.0000E+000  
  350.50  0.0000E+000  
  351.00  0.0000E+000  
  351.50  0.0000E+000  
  352.00  0.0000E+000  
  352.50  0.0000E+000  
  353.00  0.0000E+000  
  353.50  0.0000E+000  
  354.00  0.0000E+000  
  354.50  0.0000E+000  
  355.00  0.0000E+000  
  355.50  0.0000E+000  
  356.00  0.0000E+000  
  356.50  0.0000E+000  
  357.00  0.0000E+000  
  357.50  0.0000E+000  
  358.00  0.0000E+000  
  358.50  0.0000E+000  
  359.00  0.0000E+000  
  359.50  8.0721E-005  
  360.00  3.8555E-004  
  360.50  3.1175E-004  
  361.00  3.3402E-004  
  361.50  8.8447E-005  
  362.00  0.0000E+000  
  362.50  0.0000E+000  
  363.00  0.0000E+000  
  363.50  0.0000E+000  
  364.00  0.0000E+000  
  364.50  0.0000E+000  
  365.00  0.0000E+000  
  365.50  0.0000E+000  
  366.00  0.0000E+000  
  366.50  0.0000E+000  
  367.00  0.0000E+000  
  367.50  0.0000E+000  
  368.00  1.6080E-004  
  368.50  2.9416E-004  
  369.00  3.7048E-004  
  369.50  4.6796E-004  
  370.00  2.1054E-004  
  370.50  6.2450E-005  
  371.00  0.0000E+000  
  371.50  0.0000E+000  
  372.00  0.0000E+000  
  372.50  0.0000E+000  
  373.00  8.9127E-005  
  373.50  2.3480E-005  
  374.00  0.0000E+000  
  374.50  0.0000E+000  
  375.00  0.0000E+000  
  375.50  9.4783E-006  
  376.00  5.9807E-005  
  376.50  0.0000E+000  
  377.00  0.0000E+000  
  377.50  0.0000E+000  
  378.00  0.0000E+000  
  378.50  0.0000E+000  
  379.00  0.0000E+000  
  379.50  4.4838E-005  
  380.00  0.0000E+000  
  380.50  0.0000E+000  
  381.00  0.0000E+000  
  381.50  0.0000E+000  
  382.00  0.0000E+000  
  382.50  0.0000E+000  
  383.00  0.0000E+000  
  383.50  0.0000E+000  
  384.00  0.0000E+000  
  384.50  0.0000E+000  
  385.00  0.0000E+000  
  385.50  0.0000E+000  
  386.00  0.0000E+000  
  386.50  0.0000E+000  
  387.00  0.0000E+000  
  387.50  0.0000E+000  
  388.00  0.0000E+000  
  388.50  0.0000E+000  
  389.00  0.0000E+000  
  389.50  0.0000E+000  
  390.00  4.9452E-005  
  390.50  1.4368E-004  
  391.00  2.5406E-004  
  391.50  2.8630E-004  
  392.00  1.5586E-004  
  392.50  2.4246E-004  
  393.00  3.0611E-004  
  393.50  2.7745E-004  
  394.00  2.8142E-004  
  394.50  1.4233E-004  
  395.00  4.6209E-005  
  395.50  3.2780E-006  
  396.00  0.0000E+000  
  396.50  0.0000E+000  
  397.00  0.0000E+000  
  397.50  0.0000E+000  
  398.00  0.0000E+000  
  398.50  0.0000E+000  
  399.00  0.0000E+000  
  399.50  0.0000E+000  
  400.00  0.0000E+000  
  400.50  0.0000E+000  
  401.00  0.0000E+000  
  401.50  0.0000E+000  
  402.00  0.0000E+000  
  402.50  0.0000E+000  
  403.00  0.0000E+000  
  403.50  3.0021E-005  
  404.00  1.7090E-005  
  404.50  0.0000E+000  
  405.00  0.0000E+000  
  405.50  0.0000E+000  
  406.00  0.0000E+000  
  406.50  0.0000E+000  
  407.00  5.4260E-005  
  407.50  2.9950E-004  
  408.00  4.0389E-004  
  408.50  2.6868E-004  
  409.00  3.7719E-005  
  409.50  0.0000E+000  
  410.00  0.0000E+000  
  410.50  0.0000E+000  
  411.00  0.0000E+000  
  411.50  0.0000E+000  
  412.00  1.4029E-005  
  412.50  1.1371E-004  
  413.00  2.1695E-004  
  413.50  3.2372E-004  
  414.00  7.3071E-004  
  414.50  8.3825E-004  
  415.00  7.7694E-004  
  415.50  4.1895E-004  
  416.00  0.0000E+000  
  416.50  0.0000E+000  
  417.00  0.0000E+000  
  417.50  0.0000E+000  
  418.00  8.1213E-008  
  418.50  8.2480E-005  
  419.00  1.9097E-004  
  419.50  2.3450E-004  
  420.00  1.4105E-004  
  420.50  4.2902E-005  
  421.00  1.8044E-005  
  421.50  1.3516E-004  
  422.00  4.4365E-004  
  422.50  5.7492E-004  
  423.00  5.1039E-004  
  423.50  1.3514E-004  
  424.00  5.8641E-006  
  424.50  8.3562E-006  
  425.00  2.0367E-004  
  425.50  4.3689E-004  
  426.00  7.5764E-004  
  426.50  8.6090E-004  
  427.00  7.3844E-004  
  427.50  5.4346E-004  
  428.00  2.8194E-004  
  428.50  2.5080E-004  
  429.00  3.9398E-004  
  429.50  6.4482E-004  
  430.00  7.7918E-004  
  430.50  7.5824E-004  
  431.00  5.5447E-004  
  431.50  3.8555E-004  
  432.00  4.1016E-004  
  432.50  7.5629E-004  
  433.00  8.8867E-004  
  433.50  7.9188E-004  
  434.00  3.2659E-004  
  434.50  1.2590E-004  
  435.00  2.2543E-004  
  435.50  5.5029E-004  
  436.00  8.6619E-004  
  436.50  1.0041E-003  
  437.00  8.5162E-004  
  437.50  5.6126E-004  
  438.00  4.9024E-004  
  438.50  4.2234E-004  
  439.00  4.6759E-004  
  439.50  5.6685E-004  
  440.00  6.6620E-004  
  440.50  7.4277E-004  
  441.00  9.8400E-004  
  441.50  1.0913E-003  
  442.00  9.1498E-004  
  442.50  7.1796E-004  
  443.00  6.9116E-004  
  443.50  8.9599E-004  
  444.00  1.2625E-003  
  444.50  1.3734E-003  
  445.00  1.2866E-003  
  445.50  1.1180E-003  
  446.00  9.1738E-004  
  446.50  8.6333E-004  
  447.00  6.7261E-004  
  447.50  5.0070E-004  
  448.00  3.9018E-004  
  448.50  2.6101E-004  
  449.00  2.6133E-004  
  449.50  2.1240E-004  
  450.00  2.6681E-004  
  450.50  3.4087E-004  
  451.00  3.8043E-004  
  451.50  4.0625E-004  
  452.00  3.3644E-004  
  452.50  1.2942E-004  
  453.00  7.6927E-005  
  453.50  0.0000E+000  
  454.00  0.0000E+000  
  454.50  2.4239E-005  
  455.00  1.2049E-004  
  455.50  1.1871E-004  
  456.00  1.1165E-004  
  456.50  1.8237E-004  
  457.00  3.3116E-004  
  457.50  2.1742E-004  
  458.00  0.0000E+000  
  458.50  0.0000E+000  
  459.00  1.7901E-004  
  459.50  4.3425E-004  
  460.00  5.5827E-004  
  460.50  4.2773E-004  
  461.00  6.8756E-005  
  461.50  0.0000E+000  
  462.00  0.0000E+000  
  462.50  0.0000E+000  
  463.00  0.0000E+000  
  463.50  4.1089E-005  
  464.00  3.3801E-004  
  464.50  5.9652E-004  
  465.00  8.6747E-004  
  465.50  8.7663E-004  
  466.00  6.6942E-004  
  466.50  3.7412E-004  
  467.00  1.8806E-004  
  467.50  1.2881E-004  
  468.00  1.0327E-004  
  468.50  0.0000E+000  
  469.00  0.0000E+000  
  469.50  0.0000E+000  
  470.00  3.1264E-005  
  470.50  7.2042E-005  
  471.00  2.3552E-004  
  471.50  2.7211E-004  
  472.00  2.7568E-004  
  472.50  1.9658E-004  
  473.00  2.6688E-005  
  473.50  1.0096E-004  
  474.00  2.3028E-005  
  474.50  5.5665E-007  
  475.00  9.2465E-008  
  475.50  0.0000E+000  
  476.00  8.3993E-006  
  476.50  0.0000E+000  
  477.00  0.0000E+000  
  477.50  0.0000E+000  
  478.00  0.0000E+000  
  478.50  0.0000E+000  
  479.00  0.0000E+000  
  479.50  1.5272E-004  
  480.00  2.9119E-004  
  480.50  2.0525E-004  
  481.00  9.8691E-005  
  481.50  1.6868E-005  
  482.00  1.6457E-004  
  482.50  2.9188E-004  
  483.00  3.1716E-004  
  483.50  1.4851E-004  
  484.00  4.3755E-005  
  484.50  4.6259E-007  
  485.00  0.0000E+000  
  485.50  1.1783E-004  
  486.00  1.9845E-004  
  486.50  2.3410E-004  
  487.00  1.5396E-004  
  487.50  3.0879E-005  
  488.00  3.4624E-005  
  488.50  6.5282E-005  
  489.00  2.1691E-004  
  489.50  3.9127E-004  
  490.00  5.3949E-004  
  490.50  5.5621E-004  
  491.00  5.0166E-004  
  491.50  4.5996E-004  
  492.00  4.3457E-004  
  492.50  3.7379E-004  
  493.00  4.3785E-004  
  493.50  4.4938E-004  
  494.00  5.5140E-004  
  494.50  5.8601E-004  
  495.00  5.3421E-004  
  495.50  6.0616E-004  
  496.00  7.2017E-004  
  496.50  9.9836E-004  
  497.00  1.2205E-003  
  497.50  1.3119E-003  
  498.00  1.3275E-003  
  498.50  1.1650E-003  
  499.00  1.1229E-003  
  499.50  1.2434E-003  
  500.00  1.4658E-003  
  500.50  1.7037E-003  
  501.00  1.7567E-003  
  501.50  1.7197E-003  
  502.00  1.7890E-003  
  502.50  1.9080E-003  
  503.00  2.0354E-003  
  503.50  2.1784E-003  
  504.00  2.2672E-003  
  504.50  2.4659E-003  
  505.00  2.5999E-003  
  505.50  2.5895E-003  
  506.00  2.5260E-003  
  506.50  2.3642E-003  
  507.00  2.4283E-003  
  507.50  2.5748E-003  
  508.00  2.9514E-003  
  508.50  3.3201E-003  
  509.00  3.5725E-003  
  509.50  3.6710E-003  
  510.00  3.6468E-003  
  510.50  3.7541E-003  
  511.00  3.8503E-003  
  511.50  4.1189E-003  
  512.00  4.2977E-003  
  512.50  4.3794E-003  
  513.00  4.4005E-003  
  513.50  4.3913E-003  
  514.00  4.4583E-003  
  514.50  4.6094E-003  
  515.00  4.7894E-003  
  515.50  5.0158E-003  
  516.00  5.1885E-003  
  516.50  5.2970E-003  
  517.00  5.3154E-003  
  517.50  5.3019E-003  
  518.00  5.3937E-003  
  518.50  5.5533E-003  
  519.00  5.6917E-003  
  519.50  5.8468E-003  
  520.00  6.0008E-003  
  520.50  6.2353E-003  
  521.00  6.4129E-003  
  521.50  6.6085E-003  
  522.00  6.6637E-003  
  522.50  6.7680E-003  
  523.00  6.7454E-003  
  523.50  6.9340E-003  
  524.00  7.0666E-003  
  524.50  7.3240E-003  
  525.00  7.5607E-003  
  525.50  7.7206E-003  
  526.00  7.8604E-003  
  526.50  7.8793E-003  
  527.00  8.0094E-003  
  527.50  8.2450E-003  
  528.00  8.4116E-003  
  528.50  8.6027E-003  
  529.00  8.6676E-003  
  529.50  8.7613E-003  
  530.00  8.8479E-003  
  530.50  8.8830E-003  
  531.00  9.0520E-003  
  531.50  9.1183E-003  
  532.00  9.2088E-003  
  532.50  9.2027E-003  
  533.00  9.3334E-003  
  533.50  9.4829E-003  
  534.00  9.7854E-003  
  534.50  9.9556E-003  
  535.00  1.0011E-002  
  535.50  9.9625E-003  
  536.00  9.8555E-003  
  536.50  9.9045E-003  
  537.00  9.8915E-003  
  537.50  9.8298E-003  
  538.00  9.8228E-003  
  538.50  1.0035E-002  
  539.00  1.0468E-002  
  539.50  1.0787E-002  
  540.00  1.0957E-002  
  540.50  1.1071E-002  
  541.00  1.1185E-002  
  541.50  1.1400E-002  
  542.00  1.1563E-002  
  542.50  1.1768E-002  
  543.00  1.1844E-002  
  543.50  1.1973E-002  
  544.00  1.1969E-002  
  544.50  1.2093E-002  
  545.00  1.2201E-002  
  545.50  1.2361E-002  
  546.00  1.2537E-002  
  546.50  1.2702E-002  
  547.00  1.2948E-002  
  547.50  1.3068E-002  
  548.00  1.3200E-002  
  548.50  1.3437E-002  
  549.00  1.3800E-002  
  549.50  1.4109E-002  
  550.00  1.4202E-002  
  550.50  1.4209E-002  
  551.00  1.4315E-002  
  551.50  1.4490E-002  
  552.00  1.4817E-002  
  552.50  1.5043E-002  
  553.00  1.5280E-002  
  553.50  1.5445E-002  
  554.00  1.5675E-002  
  554.50  1.5818E-002  
  555.00  1.6122E-002  
  555.50  1.6176E-002  
  556.00  1.6207E-002  
  556.50  1.6374E-002  
  557.00  1.6705E-002  
  557.50  1.7130E-002  
  558.00  1.7363E-002  
  558.50  1.7603E-002  
  559.00  1.7925E-002  
  559.50  1.8427E-002  
  560.00  1.8951E-002  
  560.50  1.9274E-002  
  561.00  1.9465E-002  
  561.50  1.9646E-002  
  562.00  1.9826E-002  
  562.50  2.0266E-002  
  563.00  2.0735E-002  
  563.50  2.1123E-002  
  564.00  2.1456E-002  
  564.50  2.1743E-002  
  565.00  2.2281E-002  
  565.50  2.2859E-002  
  566.00  2.3374E-002  
  566.50  2.3718E-002  
  567.00  2.4069E-002  
  567.50  2.4374E-002  
  568.00  2.4728E-002  
  568.50  2.5107E-002  
  569.00  2.5504E-002  
  569.50  2.5875E-002  
  570.00  2.6328E-002  
  570.50  2.6838E-002  
  571.00  2.7525E-002  
  571.50  2.8156E-002  
  572.00  2.8729E-002  
  572.50  2.9099E-002  
  573.00  2.9475E-002  
  573.50  2.9926E-002  
  574.00  3.0513E-002  
  574.50  3.1124E-002  
  575.00  3.1575E-002  
  575.50  3.2036E-002  
  576.00  3.2700E-002  
  576.50  3.3441E-002  
  577.00  3.4285E-002  
  577.50  3.4957E-002  
  578.00  3.5494E-002  
  578.50  3.5957E-002  
  579.00  3.6320E-002  
  579.50  3.6897E-002  
  580.00  3.7634E-002  
  580.50  3.8411E-002  
  581.00  3.9300E-002  
  581.50  3.9994E-002  
  582.00  4.0466E-002  
  582.50  4.0993E-002  
  583.00  4.1749E-002  
  583.50  4.2647E-002  
  584.00  4.3450E-002  
  584.50  4.4061E-002  
  585.00  4.4741E-002  
  585.50  4.5349E-002  
  586.00  4.6026E-002  
  586.50  4.6778E-002  
  587.00  4.7812E-002  
  587.50  4.8717E-002  
  588.00  4.9602E-002  
  588.50  5.0278E-002  
  589.00  5.0886E-002  
  589.50  5.1563E-002  
  590.00  5.2298E-002  
  590.50  5.3267E-002  
  591.00  5.4138E-002  
  591.50  5.4876E-002  
  592.00  5.5493E-002  
  592.50  5.6137E-002  
  593.00  5.6803E-002  
  593.50  5.7495E-002  
  594.00  5.8113E-002  
  594.50  5.8724E-002  
  595.00  5.9236E-002  
  595.50  6.0025E-002  
  596.00  6.0994E-002  
  596.50  6.2039E-002  
  597.00  6.2747E-002  
  597.50  6.3199E-002  
  598.00  6.3624E-002  
  598.50  6.4133E-002  
  599.00  6.5026E-002  
  599.50  6.5750E-002  
  600.00  6.6255E-002  
  600.50  6.6736E-002  
  601.00  6.7365E-002  
  601.50  6.7900E-002  
  602.00  6.8005E-002  
  602.50  6.8276E-002  
  603.00  6.8736E-002  
  603.50  6.9422E-002  
  604.00  6.9863E-002  
  604.50  7.0339E-002  
  605.00  7.1013E-002  
  605.50  7.1671E-002  
  606.00  7.2226E-002  
  606.50  7.2617E-002  
  607.00  7.2875E-002  
  607.50  7.3067E-002  
  608.00  7.3098E-002  
  608.50  7.3246E-002  
  609.00  7.3582E-002  
  609.50  7.4032E-002  
  610.00  7.4552E-002  
  610.50  7.4929E-002  
  611.00  7.5152E-002  
  611.50  7.5384E-002  
  612.00  7.5639E-002  
  612.50  7.5656E-002  
  613.00  7.5561E-002  
  613.50  7.5539E-002  
  614.00  7.5872E-002  
  614.50  7.6111E-002  
  615.00  7.5992E-002  
  615.50  7.6055E-002  
  616.00  7.6437E-002  
  616.50  7.6894E-002  
  617.00  7.6842E-002  
  617.50  7.6759E-002  
  618.00  7.6613E-002  
  618.50  7.6909E-002  
  619.00  7.6674E-002  
  619.50  7.6626E-002  
  620.00  7.6416E-002  
  620.50  7.6185E-002  
  621.00  7.6330E-002  
  621.50  7.6120E-002  
  622.00  7.6071E-002  
  622.50  7.5658E-002  
  623.00  7.5303E-002  
  623.50  7.5118E-002  
  624.00  7.4929E-002  
  624.50  7.4983E-002  
  625.00  7.5012E-002  
  625.50  7.4884E-002  
  626.00  7.4588E-002  
  626.50  7.4315E-002  
  627.00  7.4162E-002  
  627.50  7.4124E-002  
  628.00  7.4170E-002  
  628.50  7.4053E-002  
  629.00  7.3760E-002  
  629.50  7.3279E-002  
  630.00  7.3204E-002  
  630.50  7.2999E-002  
  631.00  7.2743E-002  
  631.50  7.2535E-002  
  632.00  7.2417E-002  
  632.50  7.2271E-002  
  633.00  7.1518E-002  
  633.50  7.0995E-002  
  634.00  7.0570E-002  
  634.50  7.0361E-002  
  635.00  6.9791E-002  
  635.50  6.9300E-002  
  636.00  6.8736E-002  
  636.50  6.8284E-002  
  637.00  6.7708E-002  
  637.50  6.7443E-002  
  638.00  6.7113E-002  
  638.50  6.6663E-002  
  639.00  6.6193E-002  
  639.50  6.5930E-002  
  640.00  6.5487E-002  
  640.50  6.4828E-002  
  641.00  6.4326E-002  
  641.50  6.3935E-002  
  642.00  6.3822E-002  
  642.50  6.3583E-002  
  643.00  6.3282E-002  
  643.50  6.2769E-002  
  644.00  6.2039E-002  
  644.50  6.1434E-002  
  645.00  6.0830E-002  
  645.50  6.0338E-002  
  646.00  6.0141E-002  
  646.50  6.0177E-002  
  647.00  5.9870E-002  
  647.50  5.9136E-002  
  648.00  5.8526E-002  
  648.50  5.7955E-002  
  649.00  5.7501E-002  
  649.50  5.6784E-002  
  650.00  5.6467E-002  
  650.50  5.6638E-002  
  651.00  5.6416E-002  
  651.50  5.5796E-002  
  652.00  5.4863E-002  
  652.50  5.4206E-002  
  653.00  5.3860E-002  
  653.50  5.3089E-002  
  654.00  5.2359E-002  
  654.50  5.1770E-002  
  655.00  5.1660E-002  
  655.50  5.1545E-002  
  656.00  5.1019E-002  
  656.50  5.0341E-002  
  657.00  4.9452E-002  
  657.50  4.9020E-002  
  658.00  4.8819E-002  
  658.50  4.8719E-002  
  659.00  4.8326E-002  
  659.50  4.7636E-002  
  660.00  4.6931E-002  
  660.50  4.6263E-002  
  661.00  4.5425E-002  
  661.50  4.4479E-002  
  662.00  4.3614E-002  
  662.50  4.3153E-002  
  663.00  4.3121E-002  
  663.50  4.3103E-002  
  664.00  4.2836E-002  
  664.50  4.2122E-002  
  665.00  4.1261E-002  
  665.50  4.0734E-002  
  666.00  4.0106E-002  
  666.50  3.9546E-002  
  667.00  3.8650E-002  
  667.50  3.8412E-002  
  668.00  3.8101E-002  
  668.50  3.7788E-002  
  669.00  3.7362E-002  
  669.50  3.6734E-002  
  670.00  3.6408E-002  
  670.50  3.6110E-002  
  671.00  3.5950E-002  
  671.50  3.5506E-002  
  672.00  3.5032E-002  
  672.50  3.4499E-002  
  673.00  3.3952E-002  
  673.50  3.3434E-002  
  674.00  3.3001E-002  
  674.50  3.2360E-002  
  675.00  3.1870E-002  
  675.50  3.1602E-002  
  676.00  3.1406E-002  
  676.50  3.0783E-002  
  677.00  3.0210E-002  
  677.50  2.9925E-002  
  678.00  2.9628E-002  
  678.50  2.9133E-002  
  679.00  2.8598E-002  
  679.50  2.8026E-002  
  680.00  2.7646E-002  
  680.50  2.7125E-002  
  681.00  2.6675E-002  
