
# From lspdd.org
# 
# Name: LED-Lot5-L1 QCPassed A19 -
# Indice spectral Valeur 
# MSI 0.05 
# SLI 0.19 
# IPI 0.83 
# Pourcentage de bleu 2.2 
# Caractéristique Valeur 
# CCT calculée (K) 1511 
# CCT du fabricant (K) 1500 
# Tension (V) 100 
# Puissance (W) 7.0 
# Efficacité lumineuse (Lum/W) ND 
#
# Image: '/app/system/img_1s/2789/medium_image1.JPG?1633620763'
# 

  273.00  0.0000E+000  
  273.50  0.0000E+000  
  274.00  0.0000E+000  
  274.50  0.0000E+000  
  275.00  0.0000E+000  
  275.50  0.0000E+000  
  276.00  0.0000E+000  
  276.50  0.0000E+000  
  277.00  0.0000E+000  
  277.50  0.0000E+000  
  278.00  0.0000E+000  
  278.50  0.0000E+000  
  279.00  0.0000E+000  
  279.50  0.0000E+000  
  280.00  0.0000E+000  
  280.50  0.0000E+000  
  281.00  0.0000E+000  
  281.50  0.0000E+000  
  282.00  0.0000E+000  
  282.50  0.0000E+000  
  283.00  0.0000E+000  
  283.50  0.0000E+000  
  284.00  0.0000E+000  
  284.50  0.0000E+000  
  285.00  0.0000E+000  
  285.50  0.0000E+000  
  286.00  0.0000E+000  
  286.50  0.0000E+000  
  287.00  0.0000E+000  
  287.50  0.0000E+000  
  288.00  0.0000E+000  
  288.50  0.0000E+000  
  289.00  0.0000E+000  
  289.50  0.0000E+000  
  290.00  0.0000E+000  
  290.50  0.0000E+000  
  291.00  0.0000E+000  
  291.50  0.0000E+000  
  292.00  0.0000E+000  
  292.50  0.0000E+000  
  293.00  0.0000E+000  
  293.50  0.0000E+000  
  294.00  0.0000E+000  
  294.50  0.0000E+000  
  295.00  0.0000E+000  
  295.50  0.0000E+000  
  296.00  0.0000E+000  
  296.50  0.0000E+000  
  297.00  0.0000E+000  
  297.50  0.0000E+000  
  298.00  0.0000E+000  
  298.50  0.0000E+000  
  299.00  0.0000E+000  
  299.50  0.0000E+000  
  300.00  0.0000E+000  
  300.50  0.0000E+000  
  301.00  0.0000E+000  
  301.50  0.0000E+000  
  302.00  0.0000E+000  
  302.50  0.0000E+000  
  303.00  0.0000E+000  
  303.50  0.0000E+000  
  304.00  0.0000E+000  
  304.50  0.0000E+000  
  305.00  0.0000E+000  
  305.50  0.0000E+000  
  306.00  0.0000E+000  
  306.50  0.0000E+000  
  307.00  0.0000E+000  
  307.50  0.0000E+000  
  308.00  0.0000E+000  
  308.50  0.0000E+000  
  309.00  8.6350E-005  
  309.50  3.7445E-004  
  310.00  3.8772E-004  
  310.50  2.9104E-004  
  311.00  1.0492E-005  
  311.50  0.0000E+000  
  312.00  0.0000E+000  
  312.50  0.0000E+000  
  313.00  0.0000E+000  
  313.50  0.0000E+000  
  314.00  0.0000E+000  
  314.50  0.0000E+000  
  315.00  0.0000E+000  
  315.50  0.0000E+000  
  316.00  0.0000E+000  
  316.50  0.0000E+000  
  317.00  0.0000E+000  
  317.50  0.0000E+000  
  318.00  0.0000E+000  
  318.50  0.0000E+000  
  319.00  0.0000E+000  
  319.50  0.0000E+000  
  320.00  0.0000E+000  
  320.50  0.0000E+000  
  321.00  0.0000E+000  
  321.50  0.0000E+000  
  322.00  0.0000E+000  
  322.50  0.0000E+000  
  323.00  0.0000E+000  
  323.50  0.0000E+000  
  324.00  0.0000E+000  
  324.50  0.0000E+000  
  325.00  0.0000E+000  
  325.50  0.0000E+000  
  326.00  0.0000E+000  
  326.50  0.0000E+000  
  327.00  0.0000E+000  
  327.50  0.0000E+000  
  328.00  0.0000E+000  
  328.50  0.0000E+000  
  329.00  0.0000E+000  
  329.50  0.0000E+000  
  330.00  0.0000E+000  
  330.50  0.0000E+000  
  331.00  0.0000E+000  
  331.50  0.0000E+000  
  332.00  0.0000E+000  
  332.50  0.0000E+000  
  333.00  0.0000E+000  
  333.50  0.0000E+000  
  334.00  0.0000E+000  
  334.50  0.0000E+000  
  335.00  0.0000E+000  
  335.50  0.0000E+000  
  336.00  0.0000E+000  
  336.50  0.0000E+000  
  337.00  0.0000E+000  
  337.50  0.0000E+000  
  338.00  0.0000E+000  
  338.50  0.0000E+000  
  339.00  0.0000E+000  
  339.50  0.0000E+000  
  340.00  0.0000E+000  
  340.50  0.0000E+000  
  341.00  0.0000E+000  
  341.50  0.0000E+000  
  342.00  0.0000E+000  
  342.50  0.0000E+000  
  343.00  0.0000E+000  
  343.50  0.0000E+000  
  344.00  0.0000E+000  
  344.50  0.0000E+000  
  345.00  0.0000E+000  
  345.50  0.0000E+000  
  346.00  0.0000E+000  
  346.50  0.0000E+000  
  347.00  0.0000E+000  
  347.50  0.0000E+000  
  348.00  0.0000E+000  
  348.50  0.0000E+000  
  349.00  0.0000E+000  
  349.50  0.0000E+000  
  350.00  0.0000E+000  
  350.50  0.0000E+000  
  351.00  0.0000E+000  
  351.50  0.0000E+000  
  352.00  0.0000E+000  
  352.50  0.0000E+000  
  353.00  0.0000E+000  
  353.50  0.0000E+000  
  354.00  0.0000E+000  
  354.50  0.0000E+000  
  355.00  0.0000E+000  
  355.50  0.0000E+000  
  356.00  0.0000E+000  
  356.50  0.0000E+000  
  357.00  0.0000E+000  
  357.50  0.0000E+000  
  358.00  0.0000E+000  
  358.50  0.0000E+000  
  359.00  0.0000E+000  
  359.50  0.0000E+000  
  360.00  0.0000E+000  
  360.50  0.0000E+000  
  361.00  0.0000E+000  
  361.50  0.0000E+000  
  362.00  0.0000E+000  
  362.50  0.0000E+000  
  363.00  0.0000E+000  
  363.50  0.0000E+000  
  364.00  0.0000E+000  
  364.50  0.0000E+000  
  365.00  0.0000E+000  
  365.50  0.0000E+000  
  366.00  0.0000E+000  
  366.50  0.0000E+000  
  367.00  0.0000E+000  
  367.50  0.0000E+000  
  368.00  0.0000E+000  
  368.50  0.0000E+000  
  369.00  0.0000E+000  
  369.50  0.0000E+000  
  370.00  0.0000E+000  
  370.50  0.0000E+000  
  371.00  0.0000E+000  
  371.50  0.0000E+000  
  372.00  0.0000E+000  
  372.50  0.0000E+000  
  373.00  0.0000E+000  
  373.50  0.0000E+000  
  374.00  0.0000E+000  
  374.50  0.0000E+000  
  375.00  0.0000E+000  
  375.50  0.0000E+000  
  376.00  0.0000E+000  
  376.50  0.0000E+000  
  377.00  0.0000E+000  
  377.50  0.0000E+000  
  378.00  0.0000E+000  
  378.50  0.0000E+000  
  379.00  0.0000E+000  
  379.50  1.1037E-004  
  380.00  0.0000E+000  
  380.50  0.0000E+000  
  381.00  0.0000E+000  
  381.50  0.0000E+000  
  382.00  0.0000E+000  
  382.50  0.0000E+000  
  383.00  0.0000E+000  
  383.50  0.0000E+000  
  384.00  0.0000E+000  
  384.50  0.0000E+000  
  385.00  0.0000E+000  
  385.50  0.0000E+000  
  386.00  0.0000E+000  
  386.50  0.0000E+000  
  387.00  0.0000E+000  
  387.50  0.0000E+000  
  388.00  0.0000E+000  
  388.50  0.0000E+000  
  389.00  0.0000E+000  
  389.50  0.0000E+000  
  390.00  1.2089E-005  
  390.50  7.4254E-005  
  391.00  5.7691E-005  
  391.50  0.0000E+000  
  392.00  0.0000E+000  
  392.50  0.0000E+000  
  393.00  0.0000E+000  
  393.50  0.0000E+000  
  394.00  0.0000E+000  
  394.50  0.0000E+000  
  395.00  0.0000E+000  
  395.50  0.0000E+000  
  396.00  0.0000E+000  
  396.50  0.0000E+000  
  397.00  0.0000E+000  
  397.50  0.0000E+000  
  398.00  0.0000E+000  
  398.50  0.0000E+000  
  399.00  0.0000E+000  
  399.50  0.0000E+000  
  400.00  0.0000E+000  
  400.50  0.0000E+000  
  401.00  0.0000E+000  
  401.50  0.0000E+000  
  402.00  0.0000E+000  
  402.50  0.0000E+000  
  403.00  0.0000E+000  
  403.50  0.0000E+000  
  404.00  0.0000E+000  
  404.50  0.0000E+000  
  405.00  0.0000E+000  
  405.50  0.0000E+000  
  406.00  0.0000E+000  
  406.50  0.0000E+000  
  407.00  0.0000E+000  
  407.50  0.0000E+000  
  408.00  1.3246E-004  
  408.50  2.4518E-004  
  409.00  3.1730E-004  
  409.50  9.4348E-005  
  410.00  0.0000E+000  
  410.50  0.0000E+000  
  411.00  0.0000E+000  
  411.50  0.0000E+000  
  412.00  0.0000E+000  
  412.50  0.0000E+000  
  413.00  0.0000E+000  
  413.50  0.0000E+000  
  414.00  0.0000E+000  
  414.50  5.7980E-006  
  415.00  2.2439E-005  
  415.50  2.0363E-005  
  416.00  0.0000E+000  
  416.50  0.0000E+000  
  417.00  0.0000E+000  
  417.50  1.0630E-004  
  418.00  2.2989E-004  
  418.50  6.9053E-005  
  419.00  4.2251E-006  
  419.50  0.0000E+000  
  420.00  0.0000E+000  
  420.50  0.0000E+000  
  421.00  0.0000E+000  
  421.50  0.0000E+000  
  422.00  2.1326E-004  
  422.50  3.7961E-004  
  423.00  2.3283E-004  
  423.50  0.0000E+000  
  424.00  0.0000E+000  
  424.50  0.0000E+000  
  425.00  0.0000E+000  
  425.50  3.2778E-006  
  426.00  4.2445E-004  
  426.50  8.4269E-004  
  427.00  1.0886E-003  
  427.50  1.0656E-003  
  428.00  8.0433E-004  
  428.50  4.6954E-004  
  429.00  2.5095E-004  
  429.50  0.0000E+000  
  430.00  0.0000E+000  
  430.50  0.0000E+000  
  431.00  0.0000E+000  
  431.50  0.0000E+000  
  432.00  2.0771E-004  
  432.50  3.5514E-004  
  433.00  3.4797E-004  
  433.50  2.8376E-004  
  434.00  2.5515E-004  
  434.50  4.6152E-004  
  435.00  8.2435E-004  
  435.50  1.0412E-003  
  436.00  1.1869E-003  
  436.50  1.0140E-003  
  437.00  8.5669E-004  
  437.50  5.7113E-004  
  438.00  4.4820E-004  
  438.50  3.3346E-004  
  439.00  1.5664E-004  
  439.50  1.3318E-004  
  440.00  1.3556E-004  
  440.50  3.9079E-004  
  441.00  6.5408E-004  
  441.50  4.7361E-004  
  442.00  2.5646E-004  
  442.50  1.6880E-004  
  443.00  5.3448E-004  
  443.50  9.2120E-004  
  444.00  9.8944E-004  
  444.50  8.8364E-004  
  445.00  7.7884E-004  
  445.50  9.2440E-004  
  446.00  1.0100E-003  
  446.50  9.8720E-004  
  447.00  6.7881E-004  
  447.50  4.3393E-004  
  448.00  2.8918E-004  
  448.50  1.7169E-004  
  449.00  2.4219E-004  
  449.50  2.6342E-004  
  450.00  3.3334E-004  
  450.50  4.6354E-004  
  451.00  3.6908E-004  
  451.50  4.2439E-004  
  452.00  5.4937E-004  
  452.50  3.5333E-004  
  453.00  1.0931E-004  
  453.50  0.0000E+000  
  454.00  0.0000E+000  
  454.50  0.0000E+000  
  455.00  0.0000E+000  
  455.50  0.0000E+000  
  456.00  0.0000E+000  
  456.50  0.0000E+000  
  457.00  0.0000E+000  
  457.50  0.0000E+000  
  458.00  0.0000E+000  
  458.50  0.0000E+000  
  459.00  0.0000E+000  
  459.50  3.7698E-005  
  460.00  1.7390E-004  
  460.50  1.2323E-004  
  461.00  0.0000E+000  
  461.50  0.0000E+000  
  462.00  0.0000E+000  
  462.50  0.0000E+000  
  463.00  9.5152E-006  
  463.50  2.5737E-005  
  464.00  0.0000E+000  
  464.50  0.0000E+000  
  465.00  7.1150E-005  
  465.50  3.3150E-004  
  466.00  3.6594E-004  
  466.50  2.6640E-004  
  467.00  1.4597E-004  
  467.50  1.9968E-004  
  468.00  2.4404E-004  
  468.50  1.2482E-004  
  469.00  0.0000E+000  
  469.50  0.0000E+000  
  470.00  5.0267E-005  
  470.50  2.4412E-004  
  471.00  3.0942E-004  
  471.50  4.3616E-004  
  472.00  3.9894E-004  
  472.50  2.9751E-004  
  473.00  5.1593E-005  
  473.50  0.0000E+000  
  474.00  0.0000E+000  
  474.50  0.0000E+000  
  475.00  3.8721E-005  
  475.50  0.0000E+000  
  476.00  0.0000E+000  
  476.50  0.0000E+000  
  477.00  0.0000E+000  
  477.50  0.0000E+000  
  478.00  1.5904E-005  
  478.50  5.2331E-005  
  479.00  1.5768E-004  
  479.50  2.8855E-004  
  480.00  2.4574E-004  
  480.50  7.3999E-005  
  481.00  0.0000E+000  
  481.50  0.0000E+000  
  482.00  0.0000E+000  
  482.50  1.1766E-005  
  483.00  5.9814E-005  
  483.50  1.2591E-005  
  484.00  0.0000E+000  
  484.50  0.0000E+000  
  485.00  0.0000E+000  
  485.50  2.4276E-005  
  486.00  2.4485E-004  
  486.50  3.3270E-004  
  487.00  2.7196E-004  
  487.50  1.9378E-004  
  488.00  1.9846E-004  
  488.50  2.9582E-004  
  489.00  2.9072E-004  
  489.50  2.6836E-004  
  490.00  2.6181E-004  
  490.50  3.7968E-004  
  491.00  4.6150E-004  
  491.50  5.7251E-004  
  492.00  5.5498E-004  
  492.50  5.0598E-004  
  493.00  5.7796E-004  
  493.50  6.8120E-004  
  494.00  7.4404E-004  
  494.50  8.5549E-004  
  495.00  8.6273E-004  
  495.50  8.7785E-004  
  496.00  8.8068E-004  
  496.50  1.0056E-003  
  497.00  1.1935E-003  
  497.50  1.3510E-003  
  498.00  1.3734E-003  
  498.50  1.2771E-003  
  499.00  1.2191E-003  
  499.50  1.3041E-003  
  500.00  1.4938E-003  
  500.50  1.7704E-003  
  501.00  1.9646E-003  
  501.50  2.0457E-003  
  502.00  2.0347E-003  
  502.50  2.0165E-003  
  503.00  2.0071E-003  
  503.50  2.0041E-003  
  504.00  2.1003E-003  
  504.50  2.2521E-003  
  505.00  2.4606E-003  
  505.50  2.6189E-003  
  506.00  2.6163E-003  
  506.50  2.6132E-003  
  507.00  2.7602E-003  
  507.50  2.9817E-003  
  508.00  3.2846E-003  
  508.50  3.4855E-003  
  509.00  3.6455E-003  
  509.50  3.7139E-003  
  510.00  3.7372E-003  
  510.50  3.8894E-003  
  511.00  4.0943E-003  
  511.50  4.3546E-003  
  512.00  4.4814E-003  
  512.50  4.5536E-003  
  513.00  4.6748E-003  
  513.50  4.8134E-003  
  514.00  5.0430E-003  
  514.50  5.1990E-003  
  515.00  5.3245E-003  
  515.50  5.5605E-003  
  516.00  5.7494E-003  
  516.50  5.8557E-003  
  517.00  5.9536E-003  
  517.50  5.9798E-003  
  518.00  6.0775E-003  
  518.50  6.2321E-003  
  519.00  6.2972E-003  
  519.50  6.4064E-003  
  520.00  6.5620E-003  
  520.50  6.7401E-003  
  521.00  7.0044E-003  
  521.50  7.2836E-003  
  522.00  7.4338E-003  
  522.50  7.4673E-003  
  523.00  7.5172E-003  
  523.50  7.6972E-003  
  524.00  7.8078E-003  
  524.50  7.9062E-003  
  525.00  7.8903E-003  
  525.50  8.0161E-003  
  526.00  8.2521E-003  
  526.50  8.4164E-003  
  527.00  8.6466E-003  
  527.50  8.8968E-003  
  528.00  9.1671E-003  
  528.50  9.4175E-003  
  529.00  9.4765E-003  
  529.50  9.4993E-003  
  530.00  9.5434E-003  
  530.50  9.5906E-003  
  531.00  9.7572E-003  
  531.50  9.8771E-003  
  532.00  1.0016E-002  
  532.50  1.0161E-002  
  533.00  1.0238E-002  
  533.50  1.0298E-002  
  534.00  1.0458E-002  
  534.50  1.0548E-002  
  535.00  1.0675E-002  
  535.50  1.0721E-002  
  536.00  1.0704E-002  
  536.50  1.0899E-002  
  537.00  1.1078E-002  
  537.50  1.1195E-002  
  538.00  1.1269E-002  
  538.50  1.1423E-002  
  539.00  1.1700E-002  
  539.50  1.1831E-002  
  540.00  1.1959E-002  
  540.50  1.2062E-002  
  541.00  1.2330E-002  
  541.50  1.2584E-002  
  542.00  1.2642E-002  
  542.50  1.2747E-002  
  543.00  1.2862E-002  
  543.50  1.2950E-002  
  544.00  1.3115E-002  
  544.50  1.3287E-002  
  545.00  1.3526E-002  
  545.50  1.3678E-002  
  546.00  1.3690E-002  
  546.50  1.3730E-002  
  547.00  1.4011E-002  
  547.50  1.4377E-002  
  548.00  1.4643E-002  
  548.50  1.4903E-002  
  549.00  1.5139E-002  
  549.50  1.5511E-002  
  550.00  1.5838E-002  
  550.50  1.5976E-002  
  551.00  1.6037E-002  
  551.50  1.6070E-002  
  552.00  1.6233E-002  
  552.50  1.6490E-002  
  553.00  1.6720E-002  
  553.50  1.7012E-002  
  554.00  1.7398E-002  
  554.50  1.7726E-002  
  555.00  1.8028E-002  
  555.50  1.8132E-002  
  556.00  1.8159E-002  
  556.50  1.8385E-002  
  557.00  1.8666E-002  
  557.50  1.9028E-002  
  558.00  1.9341E-002  
  558.50  1.9755E-002  
  559.00  2.0126E-002  
  559.50  2.0465E-002  
  560.00  2.0767E-002  
  560.50  2.1202E-002  
  561.00  2.1677E-002  
  561.50  2.2048E-002  
  562.00  2.2224E-002  
  562.50  2.2554E-002  
  563.00  2.2945E-002  
  563.50  2.3437E-002  
  564.00  2.3918E-002  
  564.50  2.4380E-002  
  565.00  2.4840E-002  
  565.50  2.5248E-002  
  566.00  2.5693E-002  
  566.50  2.6212E-002  
  567.00  2.6575E-002  
  567.50  2.6967E-002  
  568.00  2.7251E-002  
  568.50  2.7722E-002  
  569.00  2.8286E-002  
  569.50  2.8909E-002  
  570.00  2.9495E-002  
  570.50  3.0048E-002  
  571.00  3.0560E-002  
  571.50  3.0954E-002  
  572.00  3.1454E-002  
  572.50  3.2059E-002  
  573.00  3.2896E-002  
  573.50  3.3633E-002  
  574.00  3.4281E-002  
  574.50  3.4935E-002  
  575.00  3.5570E-002  
  575.50  3.6184E-002  
  576.00  3.6736E-002  
  576.50  3.7503E-002  
  577.00  3.8248E-002  
  577.50  3.8835E-002  
  578.00  3.9435E-002  
  578.50  4.0180E-002  
  579.00  4.0967E-002  
  579.50  4.1587E-002  
  580.00  4.2133E-002  
  580.50  4.2664E-002  
  581.00  4.3471E-002  
  581.50  4.4346E-002  
  582.00  4.5171E-002  
  582.50  4.6092E-002  
  583.00  4.7086E-002  
  583.50  4.8145E-002  
  584.00  4.9043E-002  
  584.50  4.9714E-002  
  585.00  5.0499E-002  
  585.50  5.1328E-002  
  586.00  5.2319E-002  
  586.50  5.3126E-002  
  587.00  5.3916E-002  
  587.50  5.4579E-002  
  588.00  5.5265E-002  
  588.50  5.5985E-002  
  589.00  5.6548E-002  
  589.50  5.7226E-002  
  590.00  5.8168E-002  
  590.50  5.9349E-002  
  591.00  6.0459E-002  
  591.50  6.1550E-002  
  592.00  6.2427E-002  
  592.50  6.3365E-002  
  593.00  6.4132E-002  
  593.50  6.4803E-002  
  594.00  6.5689E-002  
  594.50  6.6434E-002  
  595.00  6.7200E-002  
  595.50  6.7986E-002  
  596.00  6.9006E-002  
  596.50  6.9980E-002  
  597.00  7.0801E-002  
  597.50  7.1430E-002  
  598.00  7.2089E-002  
  598.50  7.2742E-002  
  599.00  7.3450E-002  
  599.50  7.4074E-002  
  600.00  7.4702E-002  
  600.50  7.5140E-002  
  601.00  7.5805E-002  
  601.50  7.6527E-002  
  602.00  7.7237E-002  
  602.50  7.7790E-002  
  603.00  7.8239E-002  
  603.50  7.8858E-002  
  604.00  7.9468E-002  
  604.50  8.0030E-002  
  605.00  8.0389E-002  
  605.50  8.0731E-002  
  606.00  8.1303E-002  
  606.50  8.1843E-002  
  607.00  8.2230E-002  
  607.50  8.2527E-002  
  608.00  8.2883E-002  
  608.50  8.3377E-002  
  609.00  8.3810E-002  
  609.50  8.4145E-002  
  610.00  8.4761E-002  
  610.50  8.5079E-002  
  611.00  8.5143E-002  
  611.50  8.5325E-002  
  612.00  8.5735E-002  
  612.50  8.6089E-002  
  613.00  8.5991E-002  
  613.50  8.5816E-002  
  614.00  8.6172E-002  
  614.50  8.6562E-002  
  615.00  8.6828E-002  
  615.50  8.6718E-002  
  616.00  8.6672E-002  
  616.50  8.6820E-002  
  617.00  8.6675E-002  
  617.50  8.6463E-002  
  618.00  8.6266E-002  
  618.50  8.6481E-002  
  619.00  8.6874E-002  
  619.50  8.6727E-002  
  620.00  8.6324E-002  
  620.50  8.5971E-002  
  621.00  8.6233E-002  
  621.50  8.6432E-002  
  622.00  8.6377E-002  
  622.50  8.5969E-002  
  623.00  8.5667E-002  
  623.50  8.5628E-002  
  624.00  8.5594E-002  
  624.50  8.5402E-002  
  625.00  8.5518E-002  
  625.50  8.5235E-002  
  626.00  8.4715E-002  
  626.50  8.4119E-002  
  627.00  8.3574E-002  
  627.50  8.3653E-002  
  628.00  8.3457E-002  
  628.50  8.3217E-002  
  629.00  8.2488E-002  
  629.50  8.1731E-002  
  630.00  8.1445E-002  
  630.50  8.1819E-002  
  631.00  8.2097E-002  
  631.50  8.2126E-002  
  632.00  8.1525E-002  
  632.50  8.0903E-002  
  633.00  8.0067E-002  
  633.50  7.9671E-002  
  634.00  7.9494E-002  
  634.50  7.9371E-002  
  635.00  7.8788E-002  
  635.50  7.8070E-002  
  636.00  7.7515E-002  
  636.50  7.7254E-002  
  637.00  7.7051E-002  
  637.50  7.6659E-002  
  638.00  7.5682E-002  
  638.50  7.5016E-002  
  639.00  7.4811E-002  
  639.50  7.5062E-002  
  640.00  7.4513E-002  
  640.50  7.3726E-002  
  641.00  7.3019E-002  
  641.50  7.2684E-002  
  642.00  7.2191E-002  
  642.50  7.1864E-002  
  643.00  7.1286E-002  
  643.50  7.0857E-002  
  644.00  6.9928E-002  
  644.50  6.9350E-002  
  645.00  6.8812E-002  
  645.50  6.8221E-002  
  646.00  6.7639E-002  
  646.50  6.7037E-002  
  647.00  6.6723E-002  
  647.50  6.6378E-002  
  648.00  6.5494E-002  
  648.50  6.4871E-002  
  649.00  6.4546E-002  
  649.50  6.4048E-002  
  650.00  6.3403E-002  
  650.50  6.2676E-002  
  651.00  6.2217E-002  
  651.50  6.1543E-002  
  652.00  6.0763E-002  
  652.50  6.0148E-002  
  653.00  5.9899E-002  
  653.50  5.9220E-002  
  654.00  5.8615E-002  
  654.50  5.7649E-002  
  655.00  5.6905E-002  
  655.50  5.6365E-002  
  656.00  5.6028E-002  
  656.50  5.5742E-002  
  657.00  5.4962E-002  
  657.50  5.4242E-002  
  658.00  5.3649E-002  
  658.50  5.3011E-002  
  659.00  5.2712E-002  
  659.50  5.2353E-002  
  660.00  5.1861E-002  
  660.50  5.1136E-002  
  661.00  5.0368E-002  
  661.50  5.0010E-002  
  662.00  4.9265E-002  
  662.50  4.8844E-002  
  663.00  4.8307E-002  
  663.50  4.7756E-002  
  664.00  4.6772E-002  
  664.50  4.6082E-002  
  665.00  4.5438E-002  
  665.50  4.4920E-002  
  666.00  4.4127E-002  
  666.50  4.3827E-002  
  667.00  4.3296E-002  
  667.50  4.2898E-002  
  668.00  4.2205E-002  
  668.50  4.1495E-002  
  669.00  4.1092E-002  
  669.50  4.0405E-002  
  670.00  4.0010E-002  
  670.50  3.9545E-002  
  671.00  3.9339E-002  
  671.50  3.9175E-002  
  672.00  3.8965E-002  
  672.50  3.8416E-002  
  673.00  3.7708E-002  
  673.50  3.6650E-002  
  674.00  3.6149E-002  
  674.50  3.5869E-002  
  675.00  3.5683E-002  
  675.50  3.5167E-002  
  676.00  3.4571E-002  
  676.50  3.4131E-002  
  677.00  3.3976E-002  
  677.50  3.3662E-002  
  678.00  3.3105E-002  
  678.50  3.2276E-002  
  679.00  3.1812E-002  
  679.50  3.1589E-002  
  680.00  3.1418E-002  
  680.50  3.0815E-002  
  681.00  3.0075E-002  
