
# From lspdd.org
# 
# Name: LED-Lot2-L4 QCPassed A19 -
# Indice spectral Valeur 
# MSI 0.06 
# SLI 0.19 
# IPI 0.83 
# Pourcentage de bleu 2.3 
# Caractéristique Valeur 
# CCT calculée (K) 1515 
# CCT du fabricant (K) 1500 
# Tension (V) 100 
# Puissance (W) 7.0 
# Efficacité lumineuse (Lum/W) ND 
#
# Image: '/app/system/img_1s/2792/medium_image1.JPG?1633620765'
# 

  273.00  0.0000E+000  
  273.50  0.0000E+000  
  274.00  0.0000E+000  
  274.50  0.0000E+000  
  275.00  0.0000E+000  
  275.50  0.0000E+000  
  276.00  0.0000E+000  
  276.50  0.0000E+000  
  277.00  0.0000E+000  
  277.50  0.0000E+000  
  278.00  0.0000E+000  
  278.50  0.0000E+000  
  279.00  0.0000E+000  
  279.50  0.0000E+000  
  280.00  0.0000E+000  
  280.50  0.0000E+000  
  281.00  0.0000E+000  
  281.50  0.0000E+000  
  282.00  0.0000E+000  
  282.50  0.0000E+000  
  283.00  0.0000E+000  
  283.50  0.0000E+000  
  284.00  0.0000E+000  
  284.50  0.0000E+000  
  285.00  0.0000E+000  
  285.50  0.0000E+000  
  286.00  0.0000E+000  
  286.50  0.0000E+000  
  287.00  0.0000E+000  
  287.50  0.0000E+000  
  288.00  0.0000E+000  
  288.50  0.0000E+000  
  289.00  0.0000E+000  
  289.50  0.0000E+000  
  290.00  0.0000E+000  
  290.50  0.0000E+000  
  291.00  0.0000E+000  
  291.50  0.0000E+000  
  292.00  0.0000E+000  
  292.50  0.0000E+000  
  293.00  0.0000E+000  
  293.50  0.0000E+000  
  294.00  0.0000E+000  
  294.50  0.0000E+000  
  295.00  0.0000E+000  
  295.50  0.0000E+000  
  296.00  0.0000E+000  
  296.50  0.0000E+000  
  297.00  0.0000E+000  
  297.50  0.0000E+000  
  298.00  0.0000E+000  
  298.50  0.0000E+000  
  299.00  0.0000E+000  
  299.50  0.0000E+000  
  300.00  0.0000E+000  
  300.50  0.0000E+000  
  301.00  0.0000E+000  
  301.50  4.9489E-005  
  302.00  1.4722E-004  
  302.50  1.7635E-005  
  303.00  0.0000E+000  
  303.50  0.0000E+000  
  304.00  0.0000E+000  
  304.50  0.0000E+000  
  305.00  0.0000E+000  
  305.50  0.0000E+000  
  306.00  0.0000E+000  
  306.50  0.0000E+000  
  307.00  0.0000E+000  
  307.50  0.0000E+000  
  308.00  0.0000E+000  
  308.50  2.5977E-005  
  309.00  2.8015E-004  
  309.50  5.3909E-004  
  310.00  4.8647E-004  
  310.50  3.5796E-004  
  311.00  4.0217E-005  
  311.50  0.0000E+000  
  312.00  0.0000E+000  
  312.50  0.0000E+000  
  313.00  0.0000E+000  
  313.50  0.0000E+000  
  314.00  0.0000E+000  
  314.50  0.0000E+000  
  315.00  0.0000E+000  
  315.50  0.0000E+000  
  316.00  0.0000E+000  
  316.50  6.4159E-005  
  317.00  2.2852E-005  
  317.50  0.0000E+000  
  318.00  0.0000E+000  
  318.50  0.0000E+000  
  319.00  0.0000E+000  
  319.50  0.0000E+000  
  320.00  0.0000E+000  
  320.50  0.0000E+000  
  321.00  0.0000E+000  
  321.50  0.0000E+000  
  322.00  0.0000E+000  
  322.50  0.0000E+000  
  323.00  0.0000E+000  
  323.50  0.0000E+000  
  324.00  0.0000E+000  
  324.50  0.0000E+000  
  325.00  0.0000E+000  
  325.50  0.0000E+000  
  326.00  0.0000E+000  
  326.50  0.0000E+000  
  327.00  0.0000E+000  
  327.50  0.0000E+000  
  328.00  0.0000E+000  
  328.50  0.0000E+000  
  329.00  0.0000E+000  
  329.50  0.0000E+000  
  330.00  0.0000E+000  
  330.50  0.0000E+000  
  331.00  0.0000E+000  
  331.50  0.0000E+000  
  332.00  0.0000E+000  
  332.50  0.0000E+000  
  333.00  0.0000E+000  
  333.50  0.0000E+000  
  334.00  0.0000E+000  
  334.50  0.0000E+000  
  335.00  0.0000E+000  
  335.50  1.9527E-004  
  336.00  2.1768E-004  
  336.50  2.2792E-004  
  337.00  6.5750E-005  
  337.50  0.0000E+000  
  338.00  0.0000E+000  
  338.50  0.0000E+000  
  339.00  0.0000E+000  
  339.50  0.0000E+000  
  340.00  0.0000E+000  
  340.50  0.0000E+000  
  341.00  0.0000E+000  
  341.50  0.0000E+000  
  342.00  0.0000E+000  
  342.50  0.0000E+000  
  343.00  0.0000E+000  
  343.50  0.0000E+000  
  344.00  0.0000E+000  
  344.50  0.0000E+000  
  345.00  0.0000E+000  
  345.50  0.0000E+000  
  346.00  0.0000E+000  
  346.50  0.0000E+000  
  347.00  7.3226E-005  
  347.50  0.0000E+000  
  348.00  0.0000E+000  
  348.50  0.0000E+000  
  349.00  0.0000E+000  
  349.50  0.0000E+000  
  350.00  0.0000E+000  
  350.50  0.0000E+000  
  351.00  0.0000E+000  
  351.50  0.0000E+000  
  352.00  0.0000E+000  
  352.50  0.0000E+000  
  353.00  0.0000E+000  
  353.50  2.6601E-005  
  354.00  0.0000E+000  
  354.50  0.0000E+000  
  355.00  0.0000E+000  
  355.50  0.0000E+000  
  356.00  0.0000E+000  
  356.50  0.0000E+000  
  357.00  0.0000E+000  
  357.50  0.0000E+000  
  358.00  0.0000E+000  
  358.50  0.0000E+000  
  359.00  0.0000E+000  
  359.50  0.0000E+000  
  360.00  0.0000E+000  
  360.50  0.0000E+000  
  361.00  0.0000E+000  
  361.50  0.0000E+000  
  362.00  0.0000E+000  
  362.50  0.0000E+000  
  363.00  0.0000E+000  
  363.50  0.0000E+000  
  364.00  0.0000E+000  
  364.50  0.0000E+000  
  365.00  0.0000E+000  
  365.50  0.0000E+000  
  366.00  3.2628E-006  
  366.50  1.1813E-004  
  367.00  2.0520E-004  
  367.50  2.2923E-004  
  368.00  2.4297E-004  
  368.50  0.0000E+000  
  369.00  0.0000E+000  
  369.50  0.0000E+000  
  370.00  0.0000E+000  
  370.50  0.0000E+000  
  371.00  0.0000E+000  
  371.50  0.0000E+000  
  372.00  0.0000E+000  
  372.50  0.0000E+000  
  373.00  0.0000E+000  
  373.50  0.0000E+000  
  374.00  0.0000E+000  
  374.50  0.0000E+000  
  375.00  0.0000E+000  
  375.50  0.0000E+000  
  376.00  0.0000E+000  
  376.50  0.0000E+000  
  377.00  0.0000E+000  
  377.50  0.0000E+000  
  378.00  0.0000E+000  
  378.50  0.0000E+000  
  379.00  0.0000E+000  
  379.50  0.0000E+000  
  380.00  0.0000E+000  
  380.50  0.0000E+000  
  381.00  0.0000E+000  
  381.50  0.0000E+000  
  382.00  0.0000E+000  
  382.50  0.0000E+000  
  383.00  0.0000E+000  
  383.50  0.0000E+000  
  384.00  0.0000E+000  
  384.50  0.0000E+000  
  385.00  0.0000E+000  
  385.50  0.0000E+000  
  386.00  0.0000E+000  
  386.50  0.0000E+000  
  387.00  0.0000E+000  
  387.50  0.0000E+000  
  388.00  0.0000E+000  
  388.50  0.0000E+000  
  389.00  0.0000E+000  
  389.50  2.1054E-005  
  390.00  2.1029E-004  
  390.50  4.6631E-004  
  391.00  2.9212E-004  
  391.50  4.6349E-005  
  392.00  0.0000E+000  
  392.50  0.0000E+000  
  393.00  0.0000E+000  
  393.50  0.0000E+000  
  394.00  0.0000E+000  
  394.50  0.0000E+000  
  395.00  0.0000E+000  
  395.50  0.0000E+000  
  396.00  0.0000E+000  
  396.50  0.0000E+000  
  397.00  0.0000E+000  
  397.50  0.0000E+000  
  398.00  0.0000E+000  
  398.50  0.0000E+000  
  399.00  0.0000E+000  
  399.50  0.0000E+000  
  400.00  0.0000E+000  
  400.50  0.0000E+000  
  401.00  0.0000E+000  
  401.50  0.0000E+000  
  402.00  0.0000E+000  
  402.50  4.3749E-005  
  403.00  1.8258E-004  
  403.50  2.2408E-004  
  404.00  1.0124E-004  
  404.50  2.8627E-005  
  405.00  7.5097E-005  
  405.50  3.9000E-005  
  406.00  0.0000E+000  
  406.50  0.0000E+000  
  407.00  0.0000E+000  
  407.50  0.0000E+000  
  408.00  0.0000E+000  
  408.50  0.0000E+000  
  409.00  0.0000E+000  
  409.50  0.0000E+000  
  410.00  0.0000E+000  
  410.50  0.0000E+000  
  411.00  0.0000E+000  
  411.50  0.0000E+000  
  412.00  0.0000E+000  
  412.50  0.0000E+000  
  413.00  0.0000E+000  
  413.50  0.0000E+000  
  414.00  0.0000E+000  
  414.50  0.0000E+000  
  415.00  4.0994E-005  
  415.50  2.0308E-004  
  416.00  4.8954E-005  
  416.50  0.0000E+000  
  417.00  0.0000E+000  
  417.50  0.0000E+000  
  418.00  0.0000E+000  
  418.50  0.0000E+000  
  419.00  0.0000E+000  
  419.50  0.0000E+000  
  420.00  0.0000E+000  
  420.50  6.1100E-007  
  421.00  6.4329E-005  
  421.50  2.7473E-004  
  422.00  4.4424E-004  
  422.50  6.1291E-004  
  423.00  6.5030E-004  
  423.50  4.7826E-004  
  424.00  3.5502E-004  
  424.50  1.7615E-004  
  425.00  1.2541E-004  
  425.50  7.8093E-005  
  426.00  1.2649E-004  
  426.50  3.1392E-004  
  427.00  6.0994E-004  
  427.50  7.9527E-004  
  428.00  9.5603E-004  
  428.50  9.9038E-004  
  429.00  9.7647E-004  
  429.50  8.2958E-004  
  430.00  5.7953E-004  
  430.50  5.6479E-004  
  431.00  7.8852E-004  
  431.50  9.3896E-004  
  432.00  9.1569E-004  
  432.50  6.6847E-004  
  433.00  4.3793E-004  
  433.50  3.7118E-004  
  434.00  4.3134E-004  
  434.50  5.4086E-004  
  435.00  6.9640E-004  
  435.50  8.5933E-004  
  436.00  9.1199E-004  
  436.50  8.8266E-004  
  437.00  9.5191E-004  
  437.50  8.5019E-004  
  438.00  1.0704E-003  
  438.50  1.1653E-003  
  439.00  1.1778E-003  
  439.50  1.1053E-003  
  440.00  9.1475E-004  
  440.50  7.7651E-004  
  441.00  8.1947E-004  
  441.50  9.0539E-004  
  442.00  9.9959E-004  
  442.50  1.1510E-003  
  443.00  1.1276E-003  
  443.50  1.0608E-003  
  444.00  1.1331E-003  
  444.50  1.0709E-003  
  445.00  9.8822E-004  
  445.50  9.8971E-004  
  446.00  9.1309E-004  
  446.50  1.0803E-003  
  447.00  1.1410E-003  
  447.50  1.2000E-003  
  448.00  1.0854E-003  
  448.50  1.0607E-003  
  449.00  9.9838E-004  
  449.50  9.1265E-004  
  450.00  9.1078E-004  
  450.50  7.2052E-004  
  451.00  4.3536E-004  
  451.50  3.9058E-004  
  452.00  4.3673E-004  
  452.50  3.6136E-004  
  453.00  2.3419E-004  
  453.50  6.2511E-005  
  454.00  0.0000E+000  
  454.50  0.0000E+000  
  455.00  0.0000E+000  
  455.50  0.0000E+000  
  456.00  0.0000E+000  
  456.50  1.0157E-004  
  457.00  1.3559E-004  
  457.50  3.1425E-005  
  458.00  0.0000E+000  
  458.50  0.0000E+000  
  459.00  0.0000E+000  
  459.50  0.0000E+000  
  460.00  1.3425E-004  
  460.50  4.3685E-004  
  461.00  3.6748E-004  
  461.50  2.3544E-004  
  462.00  7.6871E-005  
  462.50  1.6385E-004  
  463.00  3.3506E-004  
  463.50  4.1533E-004  
  464.00  5.2130E-004  
  464.50  5.0006E-004  
  465.00  4.8695E-004  
  465.50  3.7649E-004  
  466.00  1.8378E-004  
  466.50  0.0000E+000  
  467.00  0.0000E+000  
  467.50  0.0000E+000  
  468.00  0.0000E+000  
  468.50  0.0000E+000  
  469.00  0.0000E+000  
  469.50  8.6136E-005  
  470.00  1.9650E-004  
  470.50  2.0673E-004  
  471.00  2.5211E-004  
  471.50  2.8939E-004  
  472.00  2.5162E-004  
  472.50  2.3979E-004  
  473.00  1.1097E-004  
  473.50  9.4450E-005  
  474.00  0.0000E+000  
  474.50  0.0000E+000  
  475.00  0.0000E+000  
  475.50  0.0000E+000  
  476.00  0.0000E+000  
  476.50  0.0000E+000  
  477.00  0.0000E+000  
  477.50  0.0000E+000  
  478.00  0.0000E+000  
  478.50  0.0000E+000  
  479.00  3.2360E-006  
  479.50  8.3643E-005  
  480.00  2.2470E-004  
  480.50  1.3869E-004  
  481.00  9.5713E-005  
  481.50  1.2772E-004  
  482.00  2.4988E-004  
  482.50  3.7126E-004  
  483.00  4.5359E-004  
  483.50  5.1730E-004  
  484.00  5.3536E-004  
  484.50  3.8953E-004  
  485.00  1.9414E-004  
  485.50  1.9262E-004  
  486.00  3.2415E-004  
  486.50  2.6894E-004  
  487.00  9.0296E-005  
  487.50  0.0000E+000  
  488.00  3.7198E-005  
  488.50  1.2614E-004  
  489.00  2.6369E-004  
  489.50  3.3087E-004  
  490.00  4.2215E-004  
  490.50  4.4813E-004  
  491.00  4.0459E-004  
  491.50  3.6792E-004  
  492.00  3.7377E-004  
  492.50  3.4954E-004  
  493.00  4.3694E-004  
  493.50  5.3952E-004  
  494.00  6.1791E-004  
  494.50  6.3708E-004  
  495.00  6.0593E-004  
  495.50  6.1721E-004  
  496.00  6.8770E-004  
  496.50  8.4257E-004  
  497.00  1.0285E-003  
  497.50  1.1617E-003  
  498.00  1.2782E-003  
  498.50  1.2281E-003  
  499.00  1.2671E-003  
  499.50  1.2860E-003  
  500.00  1.3686E-003  
  500.50  1.4267E-003  
  501.00  1.4798E-003  
  501.50  1.6477E-003  
  502.00  1.8414E-003  
  502.50  2.0590E-003  
  503.00  2.0851E-003  
  503.50  2.0483E-003  
  504.00  2.0993E-003  
  504.50  2.2585E-003  
  505.00  2.3874E-003  
  505.50  2.4576E-003  
  506.00  2.5242E-003  
  506.50  2.5808E-003  
  507.00  2.8141E-003  
  507.50  2.9500E-003  
  508.00  3.2165E-003  
  508.50  3.4870E-003  
  509.00  3.6689E-003  
  509.50  3.7595E-003  
  510.00  3.7848E-003  
  510.50  3.8915E-003  
  511.00  4.0267E-003  
  511.50  4.2078E-003  
  512.00  4.3582E-003  
  512.50  4.4856E-003  
  513.00  4.5357E-003  
  513.50  4.6078E-003  
  514.00  4.7535E-003  
  514.50  4.9680E-003  
  515.00  5.1536E-003  
  515.50  5.4014E-003  
  516.00  5.5515E-003  
  516.50  5.6564E-003  
  517.00  5.7992E-003  
  517.50  5.9073E-003  
  518.00  5.9857E-003  
  518.50  6.0708E-003  
  519.00  6.0879E-003  
  519.50  6.2295E-003  
  520.00  6.4671E-003  
  520.50  6.6833E-003  
  521.00  6.8925E-003  
  521.50  7.1129E-003  
  522.00  7.2224E-003  
  522.50  7.2973E-003  
  523.00  7.3337E-003  
  523.50  7.4706E-003  
  524.00  7.6150E-003  
  524.50  7.6616E-003  
  525.00  7.7776E-003  
  525.50  7.9069E-003  
  526.00  8.0400E-003  
  526.50  8.1476E-003  
  527.00  8.1243E-003  
  527.50  8.3282E-003  
  528.00  8.5910E-003  
  528.50  8.9467E-003  
  529.00  9.1769E-003  
  529.50  9.3495E-003  
  530.00  9.4215E-003  
  530.50  9.5532E-003  
  531.00  9.7540E-003  
  531.50  9.9232E-003  
  532.00  9.9918E-003  
  532.50  1.0066E-002  
  533.00  1.0111E-002  
  533.50  1.0155E-002  
  534.00  1.0381E-002  
  534.50  1.0457E-002  
  535.00  1.0611E-002  
  535.50  1.0558E-002  
  536.00  1.0494E-002  
  536.50  1.0521E-002  
  537.00  1.0640E-002  
  537.50  1.0711E-002  
  538.00  1.0811E-002  
  538.50  1.1005E-002  
  539.00  1.1230E-002  
  539.50  1.1491E-002  
  540.00  1.1662E-002  
  540.50  1.1906E-002  
  541.00  1.2123E-002  
  541.50  1.2237E-002  
  542.00  1.2247E-002  
  542.50  1.2270E-002  
  543.00  1.2391E-002  
  543.50  1.2564E-002  
  544.00  1.2666E-002  
  544.50  1.2860E-002  
  545.00  1.3056E-002  
  545.50  1.3253E-002  
  546.00  1.3495E-002  
  546.50  1.3560E-002  
  547.00  1.3787E-002  
  547.50  1.4005E-002  
  548.00  1.4175E-002  
  548.50  1.4460E-002  
  549.00  1.4666E-002  
  549.50  1.4918E-002  
  550.00  1.5067E-002  
  550.50  1.5103E-002  
  551.00  1.5270E-002  
  551.50  1.5343E-002  
  552.00  1.5608E-002  
  552.50  1.5975E-002  
  553.00  1.6379E-002  
  553.50  1.6752E-002  
  554.00  1.7056E-002  
  554.50  1.7083E-002  
  555.00  1.7181E-002  
  555.50  1.7266E-002  
  556.00  1.7372E-002  
  556.50  1.7718E-002  
  557.00  1.8008E-002  
  557.50  1.8389E-002  
  558.00  1.8776E-002  
  558.50  1.9187E-002  
  559.00  1.9563E-002  
  559.50  1.9827E-002  
  560.00  2.0186E-002  
  560.50  2.0532E-002  
  561.00  2.0971E-002  
  561.50  2.1308E-002  
  562.00  2.1604E-002  
  562.50  2.1959E-002  
  563.00  2.2326E-002  
  563.50  2.2692E-002  
  564.00  2.3053E-002  
  564.50  2.3436E-002  
  565.00  2.3907E-002  
  565.50  2.4473E-002  
  566.00  2.4900E-002  
  566.50  2.5169E-002  
  567.00  2.5459E-002  
  567.50  2.5924E-002  
  568.00  2.6481E-002  
  568.50  2.6851E-002  
  569.00  2.7169E-002  
  569.50  2.7320E-002  
  570.00  2.7750E-002  
  570.50  2.8278E-002  
  571.00  2.9001E-002  
  571.50  2.9699E-002  
  572.00  3.0362E-002  
  572.50  3.0945E-002  
  573.00  3.1671E-002  
  573.50  3.2282E-002  
  574.00  3.2878E-002  
  574.50  3.3412E-002  
  575.00  3.3888E-002  
  575.50  3.4425E-002  
  576.00  3.5029E-002  
  576.50  3.5944E-002  
  577.00  3.6842E-002  
  577.50  3.7457E-002  
  578.00  3.7849E-002  
  578.50  3.8383E-002  
  579.00  3.9088E-002  
  579.50  3.9739E-002  
  580.00  4.0459E-002  
  580.50  4.1136E-002  
  581.00  4.2117E-002  
  581.50  4.2836E-002  
  582.00  4.3697E-002  
  582.50  4.4514E-002  
  583.00  4.5481E-002  
  583.50  4.6223E-002  
  584.00  4.6939E-002  
  584.50  4.7721E-002  
  585.00  4.8693E-002  
  585.50  4.9495E-002  
  586.00  5.0231E-002  
  586.50  5.0995E-002  
  587.00  5.1819E-002  
  587.50  5.2529E-002  
  588.00  5.2991E-002  
  588.50  5.3633E-002  
  589.00  5.4443E-002  
  589.50  5.5495E-002  
  590.00  5.6410E-002  
  590.50  5.7210E-002  
  591.00  5.8163E-002  
  591.50  5.9067E-002  
  592.00  5.9798E-002  
  592.50  6.0366E-002  
  593.00  6.0969E-002  
  593.50  6.1801E-002  
  594.00  6.2629E-002  
  594.50  6.3448E-002  
  595.00  6.4349E-002  
  595.50  6.5172E-002  
  596.00  6.6088E-002  
  596.50  6.6761E-002  
  597.00  6.7542E-002  
  597.50  6.8226E-002  
  598.00  6.8767E-002  
  598.50  6.9453E-002  
  599.00  7.0186E-002  
  599.50  7.0797E-002  
  600.00  7.1356E-002  
  600.50  7.1972E-002  
  601.00  7.2835E-002  
  601.50  7.3627E-002  
  602.00  7.4070E-002  
  602.50  7.4607E-002  
  603.00  7.4943E-002  
  603.50  7.5465E-002  
  604.00  7.6019E-002  
  604.50  7.6752E-002  
  605.00  7.7218E-002  
  605.50  7.7558E-002  
  606.00  7.7983E-002  
  606.50  7.8450E-002  
  607.00  7.8856E-002  
  607.50  7.9151E-002  
  608.00  7.9443E-002  
  608.50  7.9728E-002  
  609.00  8.0028E-002  
  609.50  8.0526E-002  
  610.00  8.1073E-002  
  610.50  8.1400E-002  
  611.00  8.1735E-002  
  611.50  8.1951E-002  
  612.00  8.2169E-002  
  612.50  8.2242E-002  
  613.00  8.2660E-002  
  613.50  8.3006E-002  
  614.00  8.3518E-002  
  614.50  8.3359E-002  
  615.00  8.3104E-002  
  615.50  8.2875E-002  
  616.00  8.3054E-002  
  616.50  8.3377E-002  
  617.00  8.3369E-002  
  617.50  8.3100E-002  
  618.00  8.3088E-002  
  618.50  8.3176E-002  
  619.00  8.3255E-002  
  619.50  8.3382E-002  
  620.00  8.3461E-002  
  620.50  8.3637E-002  
  621.00  8.3758E-002  
  621.50  8.3770E-002  
  622.00  8.3481E-002  
  622.50  8.2880E-002  
  623.00  8.2224E-002  
  623.50  8.1812E-002  
  624.00  8.1595E-002  
  624.50  8.1612E-002  
  625.00  8.1756E-002  
  625.50  8.1724E-002  
  626.00  8.1526E-002  
  626.50  8.1100E-002  
  627.00  8.0589E-002  
  627.50  8.0254E-002  
  628.00  8.0157E-002  
  628.50  8.0312E-002  
  629.00  7.9767E-002  
  629.50  7.9119E-002  
  630.00  7.8753E-002  
  630.50  7.8855E-002  
  631.00  7.9109E-002  
  631.50  7.8917E-002  
  632.00  7.8884E-002  
  632.50  7.8350E-002  
  633.00  7.7719E-002  
  633.50  7.7137E-002  
  634.00  7.6793E-002  
  634.50  7.6361E-002  
  635.00  7.5599E-002  
  635.50  7.4974E-002  
  636.00  7.4826E-002  
  636.50  7.4490E-002  
  637.00  7.4156E-002  
  637.50  7.3332E-002  
  638.00  7.2815E-002  
  638.50  7.2311E-002  
  639.00  7.2008E-002  
  639.50  7.1837E-002  
  640.00  7.1383E-002  
  640.50  7.0960E-002  
  641.00  7.0103E-002  
  641.50  6.9694E-002  
  642.00  6.9412E-002  
  642.50  6.9204E-002  
  643.00  6.8803E-002  
  643.50  6.8038E-002  
  644.00  6.7394E-002  
  644.50  6.6616E-002  
  645.00  6.5838E-002  
  645.50  6.5075E-002  
  646.00  6.4426E-002  
  646.50  6.4130E-002  
  647.00  6.3717E-002  
  647.50  6.3142E-002  
  648.00  6.2346E-002  
  648.50  6.1861E-002  
  649.00  6.1834E-002  
  649.50  6.1722E-002  
  650.00  6.1378E-002  
  650.50  6.0955E-002  
  651.00  6.0279E-002  
  651.50  5.9736E-002  
  652.00  5.9184E-002  
  652.50  5.8684E-002  
  653.00  5.7998E-002  
  653.50  5.6853E-002  
  654.00  5.6213E-002  
  654.50  5.5606E-002  
  655.00  5.5133E-002  
  655.50  5.4595E-002  
  656.00  5.3995E-002  
  656.50  5.3577E-002  
  657.00  5.2846E-002  
  657.50  5.2683E-002  
  658.00  5.2512E-002  
  658.50  5.2231E-002  
  659.00  5.1243E-002  
  659.50  5.0138E-002  
  660.00  4.9472E-002  
  660.50  4.9277E-002  
  661.00  4.8801E-002  
  661.50  4.8070E-002  
  662.00  4.7274E-002  
  662.50  4.7028E-002  
  663.00  4.6941E-002  
  663.50  4.6488E-002  
  664.00  4.5806E-002  
  664.50  4.4988E-002  
  665.00  4.4311E-002  
  665.50  4.3381E-002  
  666.00  4.2332E-002  
  666.50  4.1420E-002  
  667.00  4.0925E-002  
  667.50  4.0811E-002  
  668.00  4.0808E-002  
  668.50  4.0540E-002  
  669.00  4.0115E-002  
  669.50  3.9383E-002  
  670.00  3.8959E-002  
  670.50  3.8596E-002  
  671.00  3.8275E-002  
  671.50  3.7451E-002  
  672.00  3.6794E-002  
  672.50  3.6244E-002  
  673.00  3.5840E-002  
  673.50  3.5354E-002  
  674.00  3.4940E-002  
  674.50  3.4622E-002  
  675.00  3.4135E-002  
  675.50  3.3452E-002  
  676.00  3.2834E-002  
  676.50  3.2132E-002  
  677.00  3.1991E-002  
  677.50  3.2033E-002  
  678.00  3.2117E-002  
  678.50  3.1455E-002  
  679.00  3.0828E-002  
  679.50  2.9962E-002  
  680.00  2.9437E-002  
  680.50  2.8723E-002  
  681.00  2.8436E-002  
