
# From lspdd.org
# 
# Name: LED-Lot4-L1 QCPassed A19 -
# Indice spectral Valeur 
# MSI 0.05 
# SLI 0.19 
# IPI 0.83 
# Pourcentage de bleu 2.2 
# Caractéristique Valeur 
# CCT calculée (K) 1515 
# CCT du fabricant (K) 1500 
# Tension (V) 100 
# Puissance (W) 7.0 
# Efficacité lumineuse (Lum/W) ND 
#
# Image: '/app/system/img_1s/2793/medium_image1.JPG?1633620766'
# 

  273.00  0.0000E+000  
  273.50  0.0000E+000  
  274.00  0.0000E+000  
  274.50  0.0000E+000  
  275.00  0.0000E+000  
  275.50  0.0000E+000  
  276.00  0.0000E+000  
  276.50  0.0000E+000  
  277.00  0.0000E+000  
  277.50  0.0000E+000  
  278.00  0.0000E+000  
  278.50  0.0000E+000  
  279.00  0.0000E+000  
  279.50  0.0000E+000  
  280.00  0.0000E+000  
  280.50  0.0000E+000  
  281.00  0.0000E+000  
  281.50  0.0000E+000  
  282.00  0.0000E+000  
  282.50  0.0000E+000  
  283.00  0.0000E+000  
  283.50  0.0000E+000  
  284.00  0.0000E+000  
  284.50  0.0000E+000  
  285.00  0.0000E+000  
  285.50  0.0000E+000  
  286.00  0.0000E+000  
  286.50  0.0000E+000  
  287.00  0.0000E+000  
  287.50  0.0000E+000  
  288.00  0.0000E+000  
  288.50  0.0000E+000  
  289.00  0.0000E+000  
  289.50  0.0000E+000  
  290.00  0.0000E+000  
  290.50  0.0000E+000  
  291.00  0.0000E+000  
  291.50  0.0000E+000  
  292.00  0.0000E+000  
  292.50  0.0000E+000  
  293.00  0.0000E+000  
  293.50  0.0000E+000  
  294.00  0.0000E+000  
  294.50  0.0000E+000  
  295.00  0.0000E+000  
  295.50  0.0000E+000  
  296.00  0.0000E+000  
  296.50  0.0000E+000  
  297.00  0.0000E+000  
  297.50  0.0000E+000  
  298.00  0.0000E+000  
  298.50  0.0000E+000  
  299.00  0.0000E+000  
  299.50  0.0000E+000  
  300.00  0.0000E+000  
  300.50  3.3437E-005  
  301.00  1.2400E-004  
  301.50  2.0158E-004  
  302.00  2.5626E-004  
  302.50  3.4038E-005  
  303.00  0.0000E+000  
  303.50  0.0000E+000  
  304.00  0.0000E+000  
  304.50  0.0000E+000  
  305.00  0.0000E+000  
  305.50  0.0000E+000  
  306.00  0.0000E+000  
  306.50  0.0000E+000  
  307.00  0.0000E+000  
  307.50  0.0000E+000  
  308.00  0.0000E+000  
  308.50  0.0000E+000  
  309.00  0.0000E+000  
  309.50  1.5672E-005  
  310.00  6.2659E-005  
  310.50  4.4230E-005  
  311.00  0.0000E+000  
  311.50  0.0000E+000  
  312.00  0.0000E+000  
  312.50  0.0000E+000  
  313.00  0.0000E+000  
  313.50  0.0000E+000  
  314.00  0.0000E+000  
  314.50  0.0000E+000  
  315.00  0.0000E+000  
  315.50  0.0000E+000  
  316.00  1.1237E-006  
  316.50  3.1598E-005  
  317.00  1.0232E-005  
  317.50  0.0000E+000  
  318.00  0.0000E+000  
  318.50  0.0000E+000  
  319.00  6.5888E-006  
  319.50  1.0468E-004  
  320.00  3.9183E-005  
  320.50  0.0000E+000  
  321.00  0.0000E+000  
  321.50  0.0000E+000  
  322.00  0.0000E+000  
  322.50  0.0000E+000  
  323.00  0.0000E+000  
  323.50  0.0000E+000  
  324.00  0.0000E+000  
  324.50  0.0000E+000  
  325.00  0.0000E+000  
  325.50  0.0000E+000  
  326.00  0.0000E+000  
  326.50  0.0000E+000  
  327.00  0.0000E+000  
  327.50  0.0000E+000  
  328.00  0.0000E+000  
  328.50  0.0000E+000  
  329.00  0.0000E+000  
  329.50  0.0000E+000  
  330.00  0.0000E+000  
  330.50  0.0000E+000  
  331.00  0.0000E+000  
  331.50  0.0000E+000  
  332.00  0.0000E+000  
  332.50  0.0000E+000  
  333.00  0.0000E+000  
  333.50  0.0000E+000  
  334.00  0.0000E+000  
  334.50  0.0000E+000  
  335.00  0.0000E+000  
  335.50  0.0000E+000  
  336.00  0.0000E+000  
  336.50  0.0000E+000  
  337.00  0.0000E+000  
  337.50  0.0000E+000  
  338.00  0.0000E+000  
  338.50  0.0000E+000  
  339.00  0.0000E+000  
  339.50  0.0000E+000  
  340.00  0.0000E+000  
  340.50  0.0000E+000  
  341.00  0.0000E+000  
  341.50  0.0000E+000  
  342.00  0.0000E+000  
  342.50  0.0000E+000  
  343.00  0.0000E+000  
  343.50  0.0000E+000  
  344.00  0.0000E+000  
  344.50  0.0000E+000  
  345.00  0.0000E+000  
  345.50  0.0000E+000  
  346.00  0.0000E+000  
  346.50  0.0000E+000  
  347.00  0.0000E+000  
  347.50  0.0000E+000  
  348.00  0.0000E+000  
  348.50  0.0000E+000  
  349.00  0.0000E+000  
  349.50  0.0000E+000  
  350.00  0.0000E+000  
  350.50  0.0000E+000  
  351.00  0.0000E+000  
  351.50  0.0000E+000  
  352.00  0.0000E+000  
  352.50  0.0000E+000  
  353.00  0.0000E+000  
  353.50  1.3745E-004  
  354.00  2.0909E-004  
  354.50  0.0000E+000  
  355.00  0.0000E+000  
  355.50  0.0000E+000  
  356.00  0.0000E+000  
  356.50  0.0000E+000  
  357.00  0.0000E+000  
  357.50  0.0000E+000  
  358.00  0.0000E+000  
  358.50  0.0000E+000  
  359.00  0.0000E+000  
  359.50  0.0000E+000  
  360.00  0.0000E+000  
  360.50  0.0000E+000  
  361.00  0.0000E+000  
  361.50  0.0000E+000  
  362.00  0.0000E+000  
  362.50  0.0000E+000  
  363.00  0.0000E+000  
  363.50  0.0000E+000  
  364.00  0.0000E+000  
  364.50  0.0000E+000  
  365.00  0.0000E+000  
  365.50  0.0000E+000  
  366.00  0.0000E+000  
  366.50  0.0000E+000  
  367.00  0.0000E+000  
  367.50  0.0000E+000  
  368.00  0.0000E+000  
  368.50  0.0000E+000  
  369.00  0.0000E+000  
  369.50  0.0000E+000  
  370.00  0.0000E+000  
  370.50  0.0000E+000  
  371.00  0.0000E+000  
  371.50  0.0000E+000  
  372.00  0.0000E+000  
  372.50  0.0000E+000  
  373.00  0.0000E+000  
  373.50  0.0000E+000  
  374.00  0.0000E+000  
  374.50  0.0000E+000  
  375.00  0.0000E+000  
  375.50  0.0000E+000  
  376.00  0.0000E+000  
  376.50  0.0000E+000  
  377.00  0.0000E+000  
  377.50  0.0000E+000  
  378.00  0.0000E+000  
  378.50  0.0000E+000  
  379.00  0.0000E+000  
  379.50  0.0000E+000  
  380.00  0.0000E+000  
  380.50  0.0000E+000  
  381.00  0.0000E+000  
  381.50  0.0000E+000  
  382.00  0.0000E+000  
  382.50  0.0000E+000  
  383.00  0.0000E+000  
  383.50  0.0000E+000  
  384.00  0.0000E+000  
  384.50  0.0000E+000  
  385.00  0.0000E+000  
  385.50  0.0000E+000  
  386.00  0.0000E+000  
  386.50  0.0000E+000  
  387.00  0.0000E+000  
  387.50  0.0000E+000  
  388.00  0.0000E+000  
  388.50  0.0000E+000  
  389.00  0.0000E+000  
  389.50  0.0000E+000  
  390.00  0.0000E+000  
  390.50  0.0000E+000  
  391.00  0.0000E+000  
  391.50  0.0000E+000  
  392.00  0.0000E+000  
  392.50  0.0000E+000  
  393.00  0.0000E+000  
  393.50  0.0000E+000  
  394.00  0.0000E+000  
  394.50  0.0000E+000  
  395.00  0.0000E+000  
  395.50  0.0000E+000  
  396.00  0.0000E+000  
  396.50  0.0000E+000  
  397.00  0.0000E+000  
  397.50  0.0000E+000  
  398.00  0.0000E+000  
  398.50  0.0000E+000  
  399.00  0.0000E+000  
  399.50  0.0000E+000  
  400.00  0.0000E+000  
  400.50  0.0000E+000  
  401.00  0.0000E+000  
  401.50  0.0000E+000  
  402.00  0.0000E+000  
  402.50  0.0000E+000  
  403.00  0.0000E+000  
  403.50  0.0000E+000  
  404.00  0.0000E+000  
  404.50  0.0000E+000  
  405.00  3.0910E-005  
  405.50  0.0000E+000  
  406.00  7.6708E-005  
  406.50  2.3660E-005  
  407.00  8.7423E-005  
  407.50  2.1274E-004  
  408.00  3.4871E-004  
  408.50  3.3720E-004  
  409.00  1.7760E-004  
  409.50  0.0000E+000  
  410.00  0.0000E+000  
  410.50  0.0000E+000  
  411.00  0.0000E+000  
  411.50  0.0000E+000  
  412.00  0.0000E+000  
  412.50  0.0000E+000  
  413.00  2.0926E-006  
  413.50  1.1470E-004  
  414.00  3.9841E-004  
  414.50  3.6662E-004  
  415.00  1.6568E-004  
  415.50  8.8735E-005  
  416.00  0.0000E+000  
  416.50  0.0000E+000  
  417.00  0.0000E+000  
  417.50  0.0000E+000  
  418.00  0.0000E+000  
  418.50  0.0000E+000  
  419.00  0.0000E+000  
  419.50  0.0000E+000  
  420.00  0.0000E+000  
  420.50  0.0000E+000  
  421.00  0.0000E+000  
  421.50  1.9775E-004  
  422.00  5.3785E-004  
  422.50  7.8871E-004  
  423.00  6.5365E-004  
  423.50  1.8314E-004  
  424.00  2.6386E-006  
  424.50  0.0000E+000  
  425.00  0.0000E+000  
  425.50  0.0000E+000  
  426.00  2.9008E-005  
  426.50  8.1503E-005  
  427.00  1.7028E-004  
  427.50  2.8377E-004  
  428.00  3.6797E-004  
  428.50  4.5783E-004  
  429.00  4.8594E-004  
  429.50  4.0381E-004  
  430.00  2.5523E-004  
  430.50  1.9736E-004  
  431.00  4.7872E-004  
  431.50  5.7750E-004  
  432.00  5.1073E-004  
  432.50  4.4255E-004  
  433.00  2.7315E-004  
  433.50  2.9377E-004  
  434.00  3.3954E-004  
  434.50  6.1343E-004  
  435.00  9.6226E-004  
  435.50  1.2106E-003  
  436.00  1.3005E-003  
  436.50  1.1112E-003  
  437.00  9.8461E-004  
  437.50  6.2863E-004  
  438.00  6.2658E-004  
  438.50  5.6766E-004  
  439.00  4.6537E-004  
  439.50  2.9917E-004  
  440.00  1.5726E-004  
  440.50  1.7232E-004  
  441.00  5.3236E-004  
  441.50  8.3011E-004  
  442.00  9.6419E-004  
  442.50  1.0575E-003  
  443.00  1.2107E-003  
  443.50  1.1064E-003  
  444.00  8.7985E-004  
  444.50  5.2048E-004  
  445.00  2.9530E-004  
  445.50  4.1032E-004  
  446.00  4.7326E-004  
  446.50  5.8688E-004  
  447.00  4.3134E-004  
  447.50  4.9609E-004  
  448.00  3.8286E-004  
  448.50  3.2923E-004  
  449.00  3.9659E-004  
  449.50  3.9894E-004  
  450.00  3.1270E-004  
  450.50  7.2260E-005  
  451.00  0.0000E+000  
  451.50  0.0000E+000  
  452.00  0.0000E+000  
  452.50  2.7040E-005  
  453.00  0.0000E+000  
  453.50  0.0000E+000  
  454.00  0.0000E+000  
  454.50  0.0000E+000  
  455.00  0.0000E+000  
  455.50  0.0000E+000  
  456.00  0.0000E+000  
  456.50  0.0000E+000  
  457.00  0.0000E+000  
  457.50  0.0000E+000  
  458.00  0.0000E+000  
  458.50  0.0000E+000  
  459.00  0.0000E+000  
  459.50  1.2712E-005  
  460.00  2.2123E-004  
  460.50  4.2961E-004  
  461.00  2.3316E-004  
  461.50  4.2060E-005  
  462.00  0.0000E+000  
  462.50  0.0000E+000  
  463.00  0.0000E+000  
  463.50  0.0000E+000  
  464.00  0.0000E+000  
  464.50  1.8793E-005  
  465.00  1.3800E-004  
  465.50  2.0592E-004  
  466.00  1.8225E-004  
  466.50  1.3077E-005  
  467.00  0.0000E+000  
  467.50  6.3908E-005  
  468.00  1.1408E-004  
  468.50  1.7488E-004  
  469.00  4.0314E-005  
  469.50  5.2960E-005  
  470.00  1.9704E-005  
  470.50  8.2874E-005  
  471.00  1.1471E-004  
  471.50  1.1901E-004  
  472.00  5.6370E-005  
  472.50  0.0000E+000  
  473.00  0.0000E+000  
  473.50  1.8151E-005  
  474.00  4.6047E-006  
  474.50  0.0000E+000  
  475.00  0.0000E+000  
  475.50  0.0000E+000  
  476.00  0.0000E+000  
  476.50  1.2502E-005  
  477.00  0.0000E+000  
  477.50  0.0000E+000  
  478.00  0.0000E+000  
  478.50  0.0000E+000  
  479.00  0.0000E+000  
  479.50  3.3156E-005  
  480.00  1.1683E-004  
  480.50  9.2923E-006  
  481.00  0.0000E+000  
  481.50  0.0000E+000  
  482.00  0.0000E+000  
  482.50  0.0000E+000  
  483.00  3.5161E-005  
  483.50  1.7071E-004  
  484.00  1.7867E-004  
  484.50  3.6025E-005  
  485.00  0.0000E+000  
  485.50  0.0000E+000  
  486.00  8.2283E-005  
  486.50  2.1298E-004  
  487.00  9.8508E-005  
  487.50  0.0000E+000  
  488.00  0.0000E+000  
  488.50  0.0000E+000  
  489.00  5.0931E-007  
  489.50  1.1910E-004  
  490.00  1.8914E-004  
  490.50  2.6449E-004  
  491.00  3.6912E-004  
  491.50  4.4075E-004  
  492.00  4.5788E-004  
  492.50  3.3932E-004  
  493.00  3.5634E-004  
  493.50  4.7928E-004  
  494.00  6.8407E-004  
  494.50  7.9096E-004  
  495.00  7.5936E-004  
  495.50  6.2201E-004  
  496.00  5.7572E-004  
  496.50  7.4193E-004  
  497.00  9.1979E-004  
  497.50  1.2293E-003  
  498.00  1.3708E-003  
  498.50  1.3730E-003  
  499.00  1.3454E-003  
  499.50  1.3152E-003  
  500.00  1.3599E-003  
  500.50  1.5109E-003  
  501.00  1.6189E-003  
  501.50  1.6973E-003  
  502.00  1.7897E-003  
  502.50  1.9025E-003  
  503.00  1.9930E-003  
  503.50  2.0543E-003  
  504.00  2.1353E-003  
  504.50  2.2802E-003  
  505.00  2.4240E-003  
  505.50  2.5686E-003  
  506.00  2.6316E-003  
  506.50  2.6840E-003  
  507.00  2.8397E-003  
  507.50  2.9733E-003  
  508.00  3.2024E-003  
  508.50  3.3453E-003  
  509.00  3.4550E-003  
  509.50  3.5816E-003  
  510.00  3.6653E-003  
  510.50  3.8372E-003  
  511.00  3.9744E-003  
  511.50  4.1371E-003  
  512.00  4.2933E-003  
  512.50  4.4298E-003  
  513.00  4.5421E-003  
  513.50  4.6194E-003  
  514.00  4.6471E-003  
  514.50  4.6591E-003  
  515.00  4.7625E-003  
  515.50  5.1459E-003  
  516.00  5.4553E-003  
  516.50  5.6567E-003  
  517.00  5.7478E-003  
  517.50  5.8070E-003  
  518.00  5.8944E-003  
  518.50  6.0531E-003  
  519.00  6.1264E-003  
  519.50  6.2442E-003  
  520.00  6.4082E-003  
  520.50  6.5290E-003  
  521.00  6.7037E-003  
  521.50  6.8705E-003  
  522.00  6.9137E-003  
  522.50  7.0354E-003  
  523.00  7.0945E-003  
  523.50  7.3247E-003  
  524.00  7.4443E-003  
  524.50  7.5496E-003  
  525.00  7.6417E-003  
  525.50  7.7654E-003  
  526.00  7.9059E-003  
  526.50  7.9956E-003  
  527.00  8.0698E-003  
  527.50  8.1687E-003  
  528.00  8.3593E-003  
  528.50  8.6429E-003  
  529.00  8.8328E-003  
  529.50  8.9986E-003  
  530.00  9.0051E-003  
  530.50  8.9990E-003  
  531.00  9.0887E-003  
  531.50  9.2172E-003  
  532.00  9.3627E-003  
  532.50  9.5902E-003  
  533.00  9.7934E-003  
  533.50  9.9003E-003  
  534.00  1.0135E-002  
  534.50  1.0245E-002  
  535.00  1.0354E-002  
  535.50  1.0370E-002  
  536.00  1.0230E-002  
  536.50  1.0305E-002  
  537.00  1.0475E-002  
  537.50  1.0626E-002  
  538.00  1.0687E-002  
  538.50  1.0766E-002  
  539.00  1.0892E-002  
  539.50  1.1192E-002  
  540.00  1.1341E-002  
  540.50  1.1520E-002  
  541.00  1.1606E-002  
  541.50  1.1757E-002  
  542.00  1.1872E-002  
  542.50  1.2106E-002  
  543.00  1.2271E-002  
  543.50  1.2517E-002  
  544.00  1.2699E-002  
  544.50  1.2857E-002  
  545.00  1.2965E-002  
  545.50  1.3105E-002  
  546.00  1.3322E-002  
  546.50  1.3484E-002  
  547.00  1.3552E-002  
  547.50  1.3534E-002  
  548.00  1.3750E-002  
  548.50  1.4172E-002  
  549.00  1.4577E-002  
  549.50  1.4911E-002  
  550.00  1.5051E-002  
  550.50  1.5064E-002  
  551.00  1.5026E-002  
  551.50  1.5031E-002  
  552.00  1.5325E-002  
  552.50  1.5627E-002  
  553.00  1.5862E-002  
  553.50  1.6119E-002  
  554.00  1.6427E-002  
  554.50  1.6750E-002  
  555.00  1.7109E-002  
  555.50  1.7234E-002  
  556.00  1.7382E-002  
  556.50  1.7625E-002  
  557.00  1.7919E-002  
  557.50  1.8320E-002  
  558.00  1.8616E-002  
  558.50  1.8940E-002  
  559.00  1.9197E-002  
  559.50  1.9565E-002  
  560.00  1.9923E-002  
  560.50  2.0323E-002  
  561.00  2.0668E-002  
  561.50  2.0901E-002  
  562.00  2.1086E-002  
  562.50  2.1399E-002  
  563.00  2.1825E-002  
  563.50  2.2297E-002  
  564.00  2.2749E-002  
  564.50  2.3044E-002  
  565.00  2.3308E-002  
  565.50  2.3635E-002  
  566.00  2.4071E-002  
  566.50  2.4519E-002  
  567.00  2.4921E-002  
  567.50  2.5431E-002  
  568.00  2.6017E-002  
  568.50  2.6588E-002  
  569.00  2.7047E-002  
  569.50  2.7450E-002  
  570.00  2.7842E-002  
  570.50  2.8293E-002  
  571.00  2.8738E-002  
  571.50  2.9278E-002  
  572.00  2.9874E-002  
  572.50  3.0526E-002  
  573.00  3.1110E-002  
  573.50  3.1795E-002  
  574.00  3.2354E-002  
  574.50  3.2974E-002  
  575.00  3.3562E-002  
  575.50  3.4012E-002  
  576.00  3.4435E-002  
  576.50  3.5048E-002  
  577.00  3.5725E-002  
  577.50  3.6578E-002  
  578.00  3.7227E-002  
  578.50  3.8008E-002  
  579.00  3.8694E-002  
  579.50  3.9452E-002  
  580.00  4.0236E-002  
  580.50  4.0957E-002  
  581.00  4.1856E-002  
  581.50  4.2619E-002  
  582.00  4.3351E-002  
  582.50  4.4132E-002  
  583.00  4.4851E-002  
  583.50  4.5548E-002  
  584.00  4.6051E-002  
  584.50  4.6604E-002  
  585.00  4.7301E-002  
  585.50  4.8209E-002  
  586.00  4.9190E-002  
  586.50  5.0097E-002  
  587.00  5.0966E-002  
  587.50  5.1810E-002  
  588.00  5.2528E-002  
  588.50  5.2974E-002  
  589.00  5.3394E-002  
  589.50  5.3931E-002  
  590.00  5.4929E-002  
  590.50  5.6184E-002  
  591.00  5.7265E-002  
  591.50  5.8133E-002  
  592.00  5.8617E-002  
  592.50  5.9015E-002  
  593.00  5.9834E-002  
  593.50  6.0777E-002  
  594.00  6.1960E-002  
  594.50  6.2998E-002  
  595.00  6.3701E-002  
  595.50  6.4238E-002  
  596.00  6.4868E-002  
  596.50  6.5717E-002  
  597.00  6.6579E-002  
  597.50  6.7156E-002  
  598.00  6.7741E-002  
  598.50  6.8445E-002  
  599.00  6.9201E-002  
  599.50  6.9877E-002  
  600.00  7.0485E-002  
  600.50  7.1008E-002  
  601.00  7.1543E-002  
  601.50  7.2063E-002  
  602.00  7.2706E-002  
  602.50  7.3392E-002  
  603.00  7.3903E-002  
  603.50  7.4310E-002  
  604.00  7.4779E-002  
  604.50  7.5110E-002  
  605.00  7.5497E-002  
  605.50  7.5808E-002  
  606.00  7.6134E-002  
  606.50  7.6613E-002  
  607.00  7.7112E-002  
  607.50  7.7709E-002  
  608.00  7.8260E-002  
  608.50  7.8474E-002  
  609.00  7.8652E-002  
  609.50  7.8857E-002  
  610.00  7.9371E-002  
  610.50  7.9784E-002  
  611.00  7.9907E-002  
  611.50  8.0074E-002  
  612.00  8.0441E-002  
  612.50  8.0969E-002  
  613.00  8.1224E-002  
  613.50  8.1301E-002  
  614.00  8.1321E-002  
  614.50  8.1329E-002  
  615.00  8.1023E-002  
  615.50  8.0890E-002  
  616.00  8.1064E-002  
  616.50  8.1488E-002  
  617.00  8.1509E-002  
  617.50  8.1276E-002  
  618.00  8.1217E-002  
  618.50  8.1426E-002  
  619.00  8.1604E-002  
  619.50  8.1744E-002  
  620.00  8.1740E-002  
  620.50  8.1600E-002  
  621.00  8.1559E-002  
  621.50  8.1278E-002  
  622.00  8.1477E-002  
  622.50  8.1424E-002  
  623.00  8.1684E-002  
  623.50  8.1264E-002  
  624.00  8.0732E-002  
  624.50  8.0003E-002  
  625.00  7.9904E-002  
  625.50  7.9735E-002  
  626.00  7.9861E-002  
  626.50  7.9574E-002  
  627.00  7.9193E-002  
  627.50  7.8697E-002  
  628.00  7.8310E-002  
  628.50  7.8056E-002  
  629.00  7.7800E-002  
  629.50  7.7625E-002  
  630.00  7.7412E-002  
  630.50  7.7213E-002  
  631.00  7.6947E-002  
  631.50  7.6922E-002  
  632.00  7.6597E-002  
  632.50  7.6075E-002  
  633.00  7.5355E-002  
  633.50  7.5045E-002  
  634.00  7.4941E-002  
  634.50  7.4737E-002  
  635.00  7.4278E-002  
  635.50  7.3551E-002  
  636.00  7.3031E-002  
  636.50  7.2821E-002  
  637.00  7.2483E-002  
  637.50  7.2026E-002  
  638.00  7.1253E-002  
  638.50  7.0806E-002  
  639.00  7.0584E-002  
  639.50  7.0236E-002  
  640.00  6.9611E-002  
  640.50  6.9245E-002  
  641.00  6.8949E-002  
  641.50  6.8556E-002  
  642.00  6.7678E-002  
  642.50  6.7233E-002  
  643.00  6.6843E-002  
  643.50  6.6511E-002  
  644.00  6.5395E-002  
  644.50  6.4436E-002  
  645.00  6.3725E-002  
  645.50  6.3158E-002  
  646.00  6.2938E-002  
  646.50  6.2723E-002  
  647.00  6.2589E-002  
  647.50  6.2063E-002  
  648.00  6.1326E-002  
  648.50  6.0811E-002  
  649.00  6.0609E-002  
  649.50  6.0261E-002  
  650.00  6.0007E-002  
  650.50  5.9662E-002  
  651.00  5.9291E-002  
  651.50  5.8628E-002  
  652.00  5.7742E-002  
  652.50  5.6821E-002  
  653.00  5.6240E-002  
  653.50  5.5674E-002  
  654.00  5.5253E-002  
  654.50  5.4728E-002  
  655.00  5.4507E-002  
  655.50  5.4110E-002  
  656.00  5.3316E-002  
  656.50  5.2372E-002  
  657.00  5.1404E-002  
  657.50  5.0689E-002  
  658.00  5.0067E-002  
  658.50  4.9572E-002  
  659.00  4.9228E-002  
  659.50  4.8785E-002  
  660.00  4.8451E-002  
  660.50  4.8013E-002  
  661.00  4.7806E-002  
  661.50  4.7541E-002  
  662.00  4.7080E-002  
  662.50  4.6399E-002  
  663.00  4.5826E-002  
  663.50  4.5203E-002  
  664.00  4.4462E-002  
  664.50  4.3737E-002  
  665.00  4.3199E-002  
  665.50  4.2644E-002  
  666.00  4.1940E-002  
  666.50  4.1204E-002  
  667.00  4.0386E-002  
  667.50  3.9962E-002  
  668.00  3.9841E-002  
  668.50  3.9679E-002  
  669.00  3.8933E-002  
  669.50  3.7854E-002  
  670.00  3.7339E-002  
  670.50  3.7350E-002  
  671.00  3.7146E-002  
  671.50  3.6822E-002  
  672.00  3.6446E-002  
  672.50  3.6164E-002  
  673.00  3.5650E-002  
  673.50  3.4839E-002  
  674.00  3.4041E-002  
  674.50  3.3453E-002  
  675.00  3.3272E-002  
  675.50  3.3011E-002  
  676.00  3.2536E-002  
  676.50  3.1723E-002  
  677.00  3.1533E-002  
  677.50  3.1166E-002  
  678.00  3.0865E-002  
  678.50  3.0361E-002  
  679.00  3.0272E-002  
  679.50  3.0127E-002  
  680.00  2.9667E-002  
  680.50  2.8606E-002  
  681.00  2.7617E-002  
