
# From lspdd.org
# 
# Name: LED-Lot1-L4 QCPassed A19 -
# Indice spectral Valeur 
# MSI 0.05 
# SLI 0.18 
# IPI 0.83 
# Pourcentage de bleu 1.9 
# Caractéristique Valeur 
# CCT calculée (K) 1502 
# CCT du fabricant (K) 1500 
# Tension (V) 100 
# Puissance (W) 7.0 
# Efficacité lumineuse (Lum/W) ND 
#
# Image: '/app/system/img_1s/2795/medium_image1.JPG?1633620767'
# 

  273.00  0.0000E+000  
  273.50  0.0000E+000  
  274.00  0.0000E+000  
  274.50  0.0000E+000  
  275.00  0.0000E+000  
  275.50  0.0000E+000  
  276.00  0.0000E+000  
  276.50  0.0000E+000  
  277.00  0.0000E+000  
  277.50  0.0000E+000  
  278.00  0.0000E+000  
  278.50  0.0000E+000  
  279.00  0.0000E+000  
  279.50  0.0000E+000  
  280.00  0.0000E+000  
  280.50  0.0000E+000  
  281.00  0.0000E+000  
  281.50  0.0000E+000  
  282.00  0.0000E+000  
  282.50  0.0000E+000  
  283.00  0.0000E+000  
  283.50  0.0000E+000  
  284.00  0.0000E+000  
  284.50  0.0000E+000  
  285.00  0.0000E+000  
  285.50  0.0000E+000  
  286.00  0.0000E+000  
  286.50  0.0000E+000  
  287.00  0.0000E+000  
  287.50  0.0000E+000  
  288.00  0.0000E+000  
  288.50  0.0000E+000  
  289.00  0.0000E+000  
  289.50  0.0000E+000  
  290.00  0.0000E+000  
  290.50  0.0000E+000  
  291.00  0.0000E+000  
  291.50  0.0000E+000  
  292.00  0.0000E+000  
  292.50  0.0000E+000  
  293.00  0.0000E+000  
  293.50  0.0000E+000  
  294.00  0.0000E+000  
  294.50  0.0000E+000  
  295.00  0.0000E+000  
  295.50  0.0000E+000  
  296.00  0.0000E+000  
  296.50  0.0000E+000  
  297.00  0.0000E+000  
  297.50  0.0000E+000  
  298.00  0.0000E+000  
  298.50  0.0000E+000  
  299.00  0.0000E+000  
  299.50  0.0000E+000  
  300.00  0.0000E+000  
  300.50  0.0000E+000  
  301.00  0.0000E+000  
  301.50  0.0000E+000  
  302.00  0.0000E+000  
  302.50  0.0000E+000  
  303.00  0.0000E+000  
  303.50  0.0000E+000  
  304.00  0.0000E+000  
  304.50  0.0000E+000  
  305.00  0.0000E+000  
  305.50  0.0000E+000  
  306.00  0.0000E+000  
  306.50  0.0000E+000  
  307.00  0.0000E+000  
  307.50  0.0000E+000  
  308.00  0.0000E+000  
  308.50  0.0000E+000  
  309.00  0.0000E+000  
  309.50  0.0000E+000  
  310.00  0.0000E+000  
  310.50  0.0000E+000  
  311.00  0.0000E+000  
  311.50  0.0000E+000  
  312.00  0.0000E+000  
  312.50  0.0000E+000  
  313.00  0.0000E+000  
  313.50  0.0000E+000  
  314.00  0.0000E+000  
  314.50  0.0000E+000  
  315.00  0.0000E+000  
  315.50  0.0000E+000  
  316.00  0.0000E+000  
  316.50  0.0000E+000  
  317.00  0.0000E+000  
  317.50  0.0000E+000  
  318.00  0.0000E+000  
  318.50  0.0000E+000  
  319.00  0.0000E+000  
  319.50  0.0000E+000  
  320.00  0.0000E+000  
  320.50  0.0000E+000  
  321.00  0.0000E+000  
  321.50  0.0000E+000  
  322.00  0.0000E+000  
  322.50  0.0000E+000  
  323.00  0.0000E+000  
  323.50  0.0000E+000  
  324.00  0.0000E+000  
  324.50  0.0000E+000  
  325.00  0.0000E+000  
  325.50  0.0000E+000  
  326.00  0.0000E+000  
  326.50  0.0000E+000  
  327.00  0.0000E+000  
  327.50  0.0000E+000  
  328.00  0.0000E+000  
  328.50  0.0000E+000  
  329.00  0.0000E+000  
  329.50  0.0000E+000  
  330.00  0.0000E+000  
  330.50  0.0000E+000  
  331.00  0.0000E+000  
  331.50  0.0000E+000  
  332.00  0.0000E+000  
  332.50  0.0000E+000  
  333.00  0.0000E+000  
  333.50  0.0000E+000  
  334.00  0.0000E+000  
  334.50  0.0000E+000  
  335.00  0.0000E+000  
  335.50  0.0000E+000  
  336.00  0.0000E+000  
  336.50  0.0000E+000  
  337.00  0.0000E+000  
  337.50  0.0000E+000  
  338.00  0.0000E+000  
  338.50  0.0000E+000  
  339.00  0.0000E+000  
  339.50  0.0000E+000  
  340.00  0.0000E+000  
  340.50  0.0000E+000  
  341.00  0.0000E+000  
  341.50  0.0000E+000  
  342.00  0.0000E+000  
  342.50  0.0000E+000  
  343.00  0.0000E+000  
  343.50  0.0000E+000  
  344.00  0.0000E+000  
  344.50  0.0000E+000  
  345.00  0.0000E+000  
  345.50  0.0000E+000  
  346.00  0.0000E+000  
  346.50  0.0000E+000  
  347.00  0.0000E+000  
  347.50  0.0000E+000  
  348.00  0.0000E+000  
  348.50  0.0000E+000  
  349.00  0.0000E+000  
  349.50  0.0000E+000  
  350.00  0.0000E+000  
  350.50  0.0000E+000  
  351.00  0.0000E+000  
  351.50  0.0000E+000  
  352.00  0.0000E+000  
  352.50  0.0000E+000  
  353.00  0.0000E+000  
  353.50  0.0000E+000  
  354.00  0.0000E+000  
  354.50  0.0000E+000  
  355.00  0.0000E+000  
  355.50  0.0000E+000  
  356.00  0.0000E+000  
  356.50  0.0000E+000  
  357.00  0.0000E+000  
  357.50  0.0000E+000  
  358.00  0.0000E+000  
  358.50  0.0000E+000  
  359.00  0.0000E+000  
  359.50  0.0000E+000  
  360.00  0.0000E+000  
  360.50  0.0000E+000  
  361.00  0.0000E+000  
  361.50  0.0000E+000  
  362.00  0.0000E+000  
  362.50  0.0000E+000  
  363.00  0.0000E+000  
  363.50  0.0000E+000  
  364.00  0.0000E+000  
  364.50  0.0000E+000  
  365.00  0.0000E+000  
  365.50  0.0000E+000  
  366.00  0.0000E+000  
  366.50  0.0000E+000  
  367.00  0.0000E+000  
  367.50  0.0000E+000  
  368.00  0.0000E+000  
  368.50  0.0000E+000  
  369.00  0.0000E+000  
  369.50  0.0000E+000  
  370.00  0.0000E+000  
  370.50  0.0000E+000  
  371.00  0.0000E+000  
  371.50  0.0000E+000  
  372.00  0.0000E+000  
  372.50  0.0000E+000  
  373.00  0.0000E+000  
  373.50  0.0000E+000  
  374.00  0.0000E+000  
  374.50  0.0000E+000  
  375.00  0.0000E+000  
  375.50  0.0000E+000  
  376.00  0.0000E+000  
  376.50  0.0000E+000  
  377.00  0.0000E+000  
  377.50  0.0000E+000  
  378.00  0.0000E+000  
  378.50  0.0000E+000  
  379.00  0.0000E+000  
  379.50  0.0000E+000  
  380.00  0.0000E+000  
  380.50  0.0000E+000  
  381.00  0.0000E+000  
  381.50  0.0000E+000  
  382.00  0.0000E+000  
  382.50  0.0000E+000  
  383.00  0.0000E+000  
  383.50  0.0000E+000  
  384.00  0.0000E+000  
  384.50  0.0000E+000  
  385.00  0.0000E+000  
  385.50  0.0000E+000  
  386.00  0.0000E+000  
  386.50  0.0000E+000  
  387.00  0.0000E+000  
  387.50  0.0000E+000  
  388.00  0.0000E+000  
  388.50  0.0000E+000  
  389.00  0.0000E+000  
  389.50  0.0000E+000  
  390.00  0.0000E+000  
  390.50  0.0000E+000  
  391.00  0.0000E+000  
  391.50  0.0000E+000  
  392.00  0.0000E+000  
  392.50  0.0000E+000  
  393.00  0.0000E+000  
  393.50  0.0000E+000  
  394.00  0.0000E+000  
  394.50  0.0000E+000  
  395.00  0.0000E+000  
  395.50  0.0000E+000  
  396.00  0.0000E+000  
  396.50  0.0000E+000  
  397.00  0.0000E+000  
  397.50  0.0000E+000  
  398.00  0.0000E+000  
  398.50  0.0000E+000  
  399.00  0.0000E+000  
  399.50  0.0000E+000  
  400.00  0.0000E+000  
  400.50  0.0000E+000  
  401.00  0.0000E+000  
  401.50  0.0000E+000  
  402.00  0.0000E+000  
  402.50  0.0000E+000  
  403.00  0.0000E+000  
  403.50  0.0000E+000  
  404.00  0.0000E+000  
  404.50  0.0000E+000  
  405.00  0.0000E+000  
  405.50  0.0000E+000  
  406.00  0.0000E+000  
  406.50  0.0000E+000  
  407.00  0.0000E+000  
  407.50  0.0000E+000  
  408.00  0.0000E+000  
  408.50  0.0000E+000  
  409.00  0.0000E+000  
  409.50  0.0000E+000  
  410.00  0.0000E+000  
  410.50  0.0000E+000  
  411.00  0.0000E+000  
  411.50  0.0000E+000  
  412.00  0.0000E+000  
  412.50  0.0000E+000  
  413.00  0.0000E+000  
  413.50  0.0000E+000  
  414.00  0.0000E+000  
  414.50  0.0000E+000  
  415.00  0.0000E+000  
  415.50  0.0000E+000  
  416.00  0.0000E+000  
  416.50  0.0000E+000  
  417.00  0.0000E+000  
  417.50  0.0000E+000  
  418.00  0.0000E+000  
  418.50  0.0000E+000  
  419.00  0.0000E+000  
  419.50  0.0000E+000  
  420.00  0.0000E+000  
  420.50  0.0000E+000  
  421.00  0.0000E+000  
  421.50  0.0000E+000  
  422.00  0.0000E+000  
  422.50  0.0000E+000  
  423.00  0.0000E+000  
  423.50  0.0000E+000  
  424.00  0.0000E+000  
  424.50  0.0000E+000  
  425.00  0.0000E+000  
  425.50  0.0000E+000  
  426.00  5.8014E-006  
  426.50  2.5909E-006  
  427.00  0.0000E+000  
  427.50  0.0000E+000  
  428.00  0.0000E+000  
  428.50  0.0000E+000  
  429.00  3.8315E-005  
  429.50  1.6393E-004  
  430.00  4.9262E-005  
  430.50  4.0630E-005  
  431.00  1.5169E-005  
  431.50  0.0000E+000  
  432.00  1.1081E-005  
  432.50  1.4249E-005  
  433.00  8.5809E-005  
  433.50  2.1263E-004  
  434.00  1.2695E-004  
  434.50  1.4182E-004  
  435.00  2.2818E-004  
  435.50  3.5432E-004  
  436.00  5.3141E-004  
  436.50  3.8382E-004  
  437.00  1.3167E-004  
  437.50  1.0430E-005  
  438.00  4.2010E-005  
  438.50  2.6103E-005  
  439.00  1.8776E-007  
  439.50  2.7262E-005  
  440.00  3.6462E-006  
  440.50  1.1464E-004  
  441.00  2.4708E-004  
  441.50  1.9453E-004  
  442.00  1.3671E-004  
  442.50  2.1092E-004  
  443.00  3.1250E-004  
  443.50  3.1164E-004  
  444.00  4.7679E-004  
  444.50  4.7676E-004  
  445.00  4.9709E-004  
  445.50  4.9673E-004  
  446.00  2.6918E-004  
  446.50  2.0430E-004  
  447.00  1.0538E-004  
  447.50  0.0000E+000  
  448.00  0.0000E+000  
  448.50  0.0000E+000  
  449.00  1.0510E-005  
  449.50  7.2498E-006  
  450.00  1.6940E-005  
  450.50  2.4926E-005  
  451.00  0.0000E+000  
  451.50  3.3047E-005  
  452.00  1.3336E-004  
  452.50  7.0101E-005  
  453.00  0.0000E+000  
  453.50  0.0000E+000  
  454.00  0.0000E+000  
  454.50  0.0000E+000  
  455.00  0.0000E+000  
  455.50  0.0000E+000  
  456.00  0.0000E+000  
  456.50  0.0000E+000  
  457.00  0.0000E+000  
  457.50  0.0000E+000  
  458.00  0.0000E+000  
  458.50  0.0000E+000  
  459.00  0.0000E+000  
  459.50  0.0000E+000  
  460.00  0.0000E+000  
  460.50  0.0000E+000  
  461.00  0.0000E+000  
  461.50  0.0000E+000  
  462.00  0.0000E+000  
  462.50  0.0000E+000  
  463.00  0.0000E+000  
  463.50  0.0000E+000  
  464.00  0.0000E+000  
  464.50  0.0000E+000  
  465.00  0.0000E+000  
  465.50  0.0000E+000  
  466.00  0.0000E+000  
  466.50  0.0000E+000  
  467.00  0.0000E+000  
  467.50  0.0000E+000  
  468.00  0.0000E+000  
  468.50  0.0000E+000  
  469.00  0.0000E+000  
  469.50  0.0000E+000  
  470.00  0.0000E+000  
  470.50  0.0000E+000  
  471.00  0.0000E+000  
  471.50  0.0000E+000  
  472.00  7.5668E-005  
  472.50  2.1343E-005  
  473.00  0.0000E+000  
  473.50  0.0000E+000  
  474.00  0.0000E+000  
  474.50  0.0000E+000  
  475.00  0.0000E+000  
  475.50  0.0000E+000  
  476.00  0.0000E+000  
  476.50  0.0000E+000  
  477.00  0.0000E+000  
  477.50  0.0000E+000  
  478.00  0.0000E+000  
  478.50  0.0000E+000  
  479.00  0.0000E+000  
  479.50  0.0000E+000  
  480.00  0.0000E+000  
  480.50  0.0000E+000  
  481.00  0.0000E+000  
  481.50  0.0000E+000  
  482.00  0.0000E+000  
  482.50  0.0000E+000  
  483.00  0.0000E+000  
  483.50  0.0000E+000  
  484.00  0.0000E+000  
  484.50  0.0000E+000  
  485.00  0.0000E+000  
  485.50  0.0000E+000  
  486.00  0.0000E+000  
  486.50  0.0000E+000  
  487.00  0.0000E+000  
  487.50  0.0000E+000  
  488.00  0.0000E+000  
  488.50  0.0000E+000  
  489.00  4.4830E-005  
  489.50  1.7426E-004  
  490.00  1.5764E-004  
  490.50  1.5701E-004  
  491.00  1.9103E-004  
  491.50  2.7082E-004  
  492.00  3.2248E-004  
  492.50  3.2140E-004  
  493.00  4.2643E-004  
  493.50  5.0780E-004  
  494.00  5.1381E-004  
  494.50  4.0266E-004  
  495.00  2.8498E-004  
  495.50  3.5540E-004  
  496.00  4.7244E-004  
  496.50  6.9968E-004  
  497.00  8.5280E-004  
  497.50  1.0228E-003  
  498.00  1.1330E-003  
  498.50  1.0188E-003  
  499.00  9.5510E-004  
  499.50  9.8108E-004  
  500.00  1.1065E-003  
  500.50  1.3485E-003  
  501.00  1.4944E-003  
  501.50  1.5300E-003  
  502.00  1.5637E-003  
  502.50  1.5443E-003  
  503.00  1.5292E-003  
  503.50  1.4957E-003  
  504.00  1.5754E-003  
  504.50  1.7666E-003  
  505.00  2.0574E-003  
  505.50  2.2515E-003  
  506.00  2.2922E-003  
  506.50  2.1762E-003  
  507.00  2.2495E-003  
  507.50  2.3933E-003  
  508.00  2.8159E-003  
  508.50  3.2123E-003  
  509.00  3.4398E-003  
  509.50  3.4913E-003  
  510.00  3.4766E-003  
  510.50  3.5772E-003  
  511.00  3.7777E-003  
  511.50  3.9774E-003  
  512.00  4.1192E-003  
  512.50  4.2283E-003  
  513.00  4.3735E-003  
  513.50  4.5136E-003  
  514.00  4.6346E-003  
  514.50  4.7143E-003  
  515.00  4.7462E-003  
  515.50  4.9714E-003  
  516.00  5.2450E-003  
  516.50  5.3860E-003  
  517.00  5.4891E-003  
  517.50  5.4572E-003  
  518.00  5.4986E-003  
  518.50  5.7020E-003  
  519.00  5.8294E-003  
  519.50  6.1026E-003  
  520.00  6.2939E-003  
  520.50  6.5019E-003  
  521.00  6.6188E-003  
  521.50  6.7470E-003  
  522.00  6.8141E-003  
  522.50  6.9809E-003  
  523.00  7.0911E-003  
  523.50  7.3234E-003  
  524.00  7.5080E-003  
  524.50  7.6181E-003  
  525.00  7.6576E-003  
  525.50  7.6428E-003  
  526.00  7.5895E-003  
  526.50  7.6533E-003  
  527.00  7.7922E-003  
  527.50  8.0917E-003  
  528.00  8.4433E-003  
  528.50  8.7786E-003  
  529.00  8.8929E-003  
  529.50  8.9602E-003  
  530.00  9.0011E-003  
  530.50  9.0718E-003  
  531.00  9.2285E-003  
  531.50  9.2907E-003  
  532.00  9.3083E-003  
  532.50  9.4309E-003  
  533.00  9.5670E-003  
  533.50  9.6768E-003  
  534.00  9.9867E-003  
  534.50  1.0160E-002  
  535.00  1.0342E-002  
  535.50  1.0191E-002  
  536.00  9.9453E-003  
  536.50  9.8436E-003  
  537.00  1.0031E-002  
  537.50  1.0204E-002  
  538.00  1.0481E-002  
  538.50  1.0736E-002  
  539.00  1.1065E-002  
  539.50  1.1198E-002  
  540.00  1.1234E-002  
  540.50  1.1353E-002  
  541.00  1.1532E-002  
  541.50  1.1790E-002  
  542.00  1.1903E-002  
  542.50  1.2029E-002  
  543.00  1.2236E-002  
  543.50  1.2581E-002  
  544.00  1.2772E-002  
  544.50  1.2820E-002  
  545.00  1.2744E-002  
  545.50  1.2831E-002  
  546.00  1.2992E-002  
  546.50  1.3241E-002  
  547.00  1.3502E-002  
  547.50  1.3726E-002  
  548.00  1.3861E-002  
  548.50  1.4133E-002  
  549.00  1.4491E-002  
  549.50  1.4911E-002  
  550.00  1.5070E-002  
  550.50  1.4919E-002  
  551.00  1.4887E-002  
  551.50  1.4934E-002  
  552.00  1.5328E-002  
  552.50  1.5710E-002  
  553.00  1.6031E-002  
  553.50  1.6258E-002  
  554.00  1.6533E-002  
  554.50  1.6772E-002  
  555.00  1.7070E-002  
  555.50  1.7134E-002  
  556.00  1.7173E-002  
  556.50  1.7369E-002  
  557.00  1.7600E-002  
  557.50  1.8035E-002  
  558.00  1.8282E-002  
  558.50  1.8705E-002  
  559.00  1.8965E-002  
  559.50  1.9211E-002  
  560.00  1.9610E-002  
  560.50  2.0031E-002  
  561.00  2.0544E-002  
  561.50  2.0911E-002  
  562.00  2.1115E-002  
  562.50  2.1674E-002  
  563.00  2.2068E-002  
  563.50  2.2437E-002  
  564.00  2.2716E-002  
  564.50  2.2937E-002  
  565.00  2.3360E-002  
  565.50  2.3819E-002  
  566.00  2.4395E-002  
  566.50  2.4971E-002  
  567.00  2.5327E-002  
  567.50  2.5646E-002  
  568.00  2.5906E-002  
  568.50  2.6345E-002  
  569.00  2.6856E-002  
  569.50  2.7338E-002  
  570.00  2.7763E-002  
  570.50  2.8281E-002  
  571.00  2.8874E-002  
  571.50  2.9634E-002  
  572.00  3.0231E-002  
  572.50  3.0848E-002  
  573.00  3.1480E-002  
  573.50  3.2107E-002  
  574.00  3.2701E-002  
  574.50  3.3277E-002  
  575.00  3.3956E-002  
  575.50  3.4549E-002  
  576.00  3.4970E-002  
  576.50  3.5629E-002  
  577.00  3.6423E-002  
  577.50  3.7362E-002  
  578.00  3.7961E-002  
  578.50  3.8436E-002  
  579.00  3.8962E-002  
  579.50  3.9675E-002  
  580.00  4.0467E-002  
  580.50  4.1219E-002  
  581.00  4.2091E-002  
  581.50  4.2985E-002  
  582.00  4.3810E-002  
  582.50  4.4512E-002  
  583.00  4.5305E-002  
  583.50  4.6145E-002  
  584.00  4.7056E-002  
  584.50  4.7705E-002  
  585.00  4.8307E-002  
  585.50  4.8952E-002  
  586.00  4.9736E-002  
  586.50  5.0452E-002  
  587.00  5.1390E-002  
  587.50  5.2269E-002  
  588.00  5.3168E-002  
  588.50  5.3763E-002  
  589.00  5.4230E-002  
  589.50  5.4866E-002  
  590.00  5.5700E-002  
  590.50  5.6980E-002  
  591.00  5.8038E-002  
  591.50  5.8989E-002  
  592.00  5.9523E-002  
  592.50  6.0265E-002  
  593.00  6.1165E-002  
  593.50  6.2194E-002  
  594.00  6.3249E-002  
  594.50  6.4003E-002  
  595.00  6.4634E-002  
  595.50  6.5154E-002  
  596.00  6.5933E-002  
  596.50  6.6825E-002  
  597.00  6.7637E-002  
  597.50  6.8151E-002  
  598.00  6.8622E-002  
  598.50  6.9350E-002  
  599.00  7.0176E-002  
  599.50  7.0924E-002  
  600.00  7.1479E-002  
  600.50  7.2204E-002  
  601.00  7.2964E-002  
  601.50  7.3597E-002  
  602.00  7.4013E-002  
  602.50  7.4672E-002  
  603.00  7.5278E-002  
  603.50  7.5766E-002  
  604.00  7.6026E-002  
  604.50  7.6538E-002  
  605.00  7.7102E-002  
  605.50  7.7627E-002  
  606.00  7.7782E-002  
  606.50  7.8056E-002  
  607.00  7.8600E-002  
  607.50  7.9247E-002  
  608.00  7.9971E-002  
  608.50  8.0147E-002  
  609.00  8.0350E-002  
  609.50  8.0756E-002  
  610.00  8.1229E-002  
  610.50  8.1732E-002  
  611.00  8.1820E-002  
  611.50  8.2089E-002  
  612.00  8.2706E-002  
  612.50  8.3224E-002  
  613.00  8.3393E-002  
  613.50  8.3328E-002  
  614.00  8.3429E-002  
  614.50  8.3408E-002  
  615.00  8.3022E-002  
  615.50  8.2587E-002  
  616.00  8.2279E-002  
  616.50  8.2677E-002  
  617.00  8.2707E-002  
  617.50  8.2790E-002  
  618.00  8.2709E-002  
  618.50  8.3046E-002  
  619.00  8.3536E-002  
  619.50  8.3687E-002  
  620.00  8.3363E-002  
  620.50  8.2895E-002  
  621.00  8.2656E-002  
  621.50  8.2622E-002  
  622.00  8.2729E-002  
  622.50  8.2499E-002  
  623.00  8.2413E-002  
  623.50  8.2334E-002  
  624.00  8.2247E-002  
  624.50  8.1753E-002  
  625.00  8.1575E-002  
  625.50  8.1358E-002  
  626.00  8.1449E-002  
  626.50  8.1424E-002  
  627.00  8.1357E-002  
  627.50  8.1234E-002  
  628.00  8.0870E-002  
  628.50  8.0100E-002  
  629.00  7.9227E-002  
  629.50  7.8517E-002  
  630.00  7.8596E-002  
  630.50  7.8891E-002  
  631.00  7.8911E-002  
  631.50  7.8684E-002  
  632.00  7.8311E-002  
  632.50  7.7670E-002  
  633.00  7.7073E-002  
  633.50  7.6538E-002  
  634.00  7.6274E-002  
  634.50  7.5655E-002  
  635.00  7.5044E-002  
  635.50  7.4479E-002  
  636.00  7.4297E-002  
  636.50  7.4256E-002  
  637.00  7.3708E-002  
  637.50  7.3047E-002  
  638.00  7.2258E-002  
  638.50  7.1924E-002  
  639.00  7.1520E-002  
  639.50  7.1207E-002  
  640.00  7.0372E-002  
  640.50  6.9917E-002  
  641.00  6.9418E-002  
  641.50  6.9119E-002  
  642.00  6.8636E-002  
  642.50  6.8128E-002  
  643.00  6.7839E-002  
  643.50  6.7188E-002  
  644.00  6.6286E-002  
  644.50  6.5293E-002  
  645.00  6.4911E-002  
  645.50  6.4423E-002  
  646.00  6.4117E-002  
  646.50  6.3775E-002  
  647.00  6.3674E-002  
  647.50  6.3483E-002  
  648.00  6.2619E-002  
  648.50  6.1806E-002  
  649.00  6.1207E-002  
  649.50  6.0642E-002  
  650.00  6.0151E-002  
  650.50  6.0158E-002  
  651.00  6.0048E-002  
  651.50  5.9784E-002  
  652.00  5.8798E-002  
  652.50  5.7968E-002  
  653.00  5.7225E-002  
  653.50  5.6402E-002  
  654.00  5.6141E-002  
  654.50  5.5937E-002  
  655.00  5.5644E-002  
  655.50  5.4892E-002  
  656.00  5.4205E-002  
  656.50  5.3671E-002  
  657.00  5.3082E-002  
  657.50  5.2305E-002  
  658.00  5.1560E-002  
  658.50  5.0748E-002  
  659.00  5.0215E-002  
  659.50  5.0035E-002  
  660.00  5.0200E-002  
  660.50  4.9697E-002  
  661.00  4.8500E-002  
  661.50  4.7365E-002  
  662.00  4.6856E-002  
  662.50  4.6987E-002  
  663.00  4.7074E-002  
  663.50  4.6853E-002  
  664.00  4.6099E-002  
  664.50  4.4920E-002  
  665.00  4.3779E-002  
  665.50  4.3016E-002  
  666.00  4.2650E-002  
  666.50  4.2204E-002  
  667.00  4.1391E-002  
  667.50  4.0950E-002  
  668.00  4.0986E-002  
  668.50  4.0714E-002  
  669.00  4.0176E-002  
  669.50  3.9073E-002  
  670.00  3.8509E-002  
  670.50  3.7917E-002  
  671.00  3.7573E-002  
  671.50  3.7010E-002  
  672.00  3.6521E-002  
  672.50  3.5975E-002  
  673.00  3.5598E-002  
  673.50  3.5091E-002  
  674.00  3.4583E-002  
  674.50  3.4254E-002  
  675.00  3.3850E-002  
  675.50  3.3507E-002  
  676.00  3.2913E-002  
  676.50  3.2155E-002  
  677.00  3.1730E-002  
  677.50  3.1405E-002  
  678.00  3.1213E-002  
  678.50  3.0739E-002  
  679.00  3.0167E-002  
  679.50  2.9580E-002  
  680.00  2.8980E-002  
  680.50  2.8294E-002  
  681.00  2.7797E-002  
