
# From lspdd.org
# 
# Name: LED-Lot5-L2 QCPassed A19 -
# Indice spectral Valeur 
# MSI 0.05 
# SLI 0.19 
# IPI 0.83 
# Pourcentage de bleu 2.2 
# Caractéristique Valeur 
# CCT calculée (K) 1516 
# CCT du fabricant (K) 1500 
# Tension (V) 100 
# Puissance (W) 7.0 
# Efficacité lumineuse (Lum/W) ND 
#
# Image: '/app/system/img_1s/2796/medium_image1.JPG?1633620768'
# 

  273.00  0.0000E+000  
  273.50  0.0000E+000  
  274.00  0.0000E+000  
  274.50  0.0000E+000  
  275.00  0.0000E+000  
  275.50  0.0000E+000  
  276.00  0.0000E+000  
  276.50  0.0000E+000  
  277.00  0.0000E+000  
  277.50  0.0000E+000  
  278.00  0.0000E+000  
  278.50  0.0000E+000  
  279.00  0.0000E+000  
  279.50  0.0000E+000  
  280.00  0.0000E+000  
  280.50  0.0000E+000  
  281.00  0.0000E+000  
  281.50  0.0000E+000  
  282.00  0.0000E+000  
  282.50  0.0000E+000  
  283.00  0.0000E+000  
  283.50  0.0000E+000  
  284.00  0.0000E+000  
  284.50  0.0000E+000  
  285.00  0.0000E+000  
  285.50  0.0000E+000  
  286.00  0.0000E+000  
  286.50  0.0000E+000  
  287.00  0.0000E+000  
  287.50  0.0000E+000  
  288.00  0.0000E+000  
  288.50  0.0000E+000  
  289.00  0.0000E+000  
  289.50  0.0000E+000  
  290.00  0.0000E+000  
  290.50  0.0000E+000  
  291.00  0.0000E+000  
  291.50  0.0000E+000  
  292.00  0.0000E+000  
  292.50  0.0000E+000  
  293.00  0.0000E+000  
  293.50  0.0000E+000  
  294.00  0.0000E+000  
  294.50  0.0000E+000  
  295.00  0.0000E+000  
  295.50  0.0000E+000  
  296.00  0.0000E+000  
  296.50  0.0000E+000  
  297.00  0.0000E+000  
  297.50  0.0000E+000  
  298.00  0.0000E+000  
  298.50  0.0000E+000  
  299.00  0.0000E+000  
  299.50  0.0000E+000  
  300.00  0.0000E+000  
  300.50  7.7109E-005  
  301.00  6.1795E-005  
  301.50  1.4354E-005  
  302.00  0.0000E+000  
  302.50  0.0000E+000  
  303.00  0.0000E+000  
  303.50  0.0000E+000  
  304.00  0.0000E+000  
  304.50  0.0000E+000  
  305.00  0.0000E+000  
  305.50  0.0000E+000  
  306.00  0.0000E+000  
  306.50  0.0000E+000  
  307.00  0.0000E+000  
  307.50  0.0000E+000  
  308.00  0.0000E+000  
  308.50  0.0000E+000  
  309.00  0.0000E+000  
  309.50  0.0000E+000  
  310.00  0.0000E+000  
  310.50  0.0000E+000  
  311.00  0.0000E+000  
  311.50  0.0000E+000  
  312.00  0.0000E+000  
  312.50  0.0000E+000  
  313.00  0.0000E+000  
  313.50  0.0000E+000  
  314.00  0.0000E+000  
  314.50  0.0000E+000  
  315.00  0.0000E+000  
  315.50  0.0000E+000  
  316.00  0.0000E+000  
  316.50  0.0000E+000  
  317.00  0.0000E+000  
  317.50  0.0000E+000  
  318.00  0.0000E+000  
  318.50  0.0000E+000  
  319.00  0.0000E+000  
  319.50  0.0000E+000  
  320.00  0.0000E+000  
  320.50  0.0000E+000  
  321.00  0.0000E+000  
  321.50  0.0000E+000  
  322.00  0.0000E+000  
  322.50  0.0000E+000  
  323.00  0.0000E+000  
  323.50  0.0000E+000  
  324.00  0.0000E+000  
  324.50  0.0000E+000  
  325.00  0.0000E+000  
  325.50  0.0000E+000  
  326.00  0.0000E+000  
  326.50  0.0000E+000  
  327.00  0.0000E+000  
  327.50  0.0000E+000  
  328.00  0.0000E+000  
  328.50  0.0000E+000  
  329.00  0.0000E+000  
  329.50  0.0000E+000  
  330.00  0.0000E+000  
  330.50  0.0000E+000  
  331.00  0.0000E+000  
  331.50  0.0000E+000  
  332.00  0.0000E+000  
  332.50  0.0000E+000  
  333.00  0.0000E+000  
  333.50  0.0000E+000  
  334.00  0.0000E+000  
  334.50  0.0000E+000  
  335.00  0.0000E+000  
  335.50  0.0000E+000  
  336.00  0.0000E+000  
  336.50  0.0000E+000  
  337.00  0.0000E+000  
  337.50  0.0000E+000  
  338.00  0.0000E+000  
  338.50  0.0000E+000  
  339.00  0.0000E+000  
  339.50  0.0000E+000  
  340.00  0.0000E+000  
  340.50  0.0000E+000  
  341.00  0.0000E+000  
  341.50  0.0000E+000  
  342.00  0.0000E+000  
  342.50  0.0000E+000  
  343.00  0.0000E+000  
  343.50  0.0000E+000  
  344.00  0.0000E+000  
  344.50  0.0000E+000  
  345.00  0.0000E+000  
  345.50  0.0000E+000  
  346.00  0.0000E+000  
  346.50  0.0000E+000  
  347.00  0.0000E+000  
  347.50  0.0000E+000  
  348.00  0.0000E+000  
  348.50  0.0000E+000  
  349.00  0.0000E+000  
  349.50  0.0000E+000  
  350.00  0.0000E+000  
  350.50  0.0000E+000  
  351.00  0.0000E+000  
  351.50  0.0000E+000  
  352.00  0.0000E+000  
  352.50  0.0000E+000  
  353.00  0.0000E+000  
  353.50  0.0000E+000  
  354.00  0.0000E+000  
  354.50  0.0000E+000  
  355.00  0.0000E+000  
  355.50  0.0000E+000  
  356.00  0.0000E+000  
  356.50  0.0000E+000  
  357.00  0.0000E+000  
  357.50  0.0000E+000  
  358.00  0.0000E+000  
  358.50  0.0000E+000  
  359.00  0.0000E+000  
  359.50  0.0000E+000  
  360.00  0.0000E+000  
  360.50  0.0000E+000  
  361.00  0.0000E+000  
  361.50  0.0000E+000  
  362.00  0.0000E+000  
  362.50  0.0000E+000  
  363.00  0.0000E+000  
  363.50  0.0000E+000  
  364.00  0.0000E+000  
  364.50  0.0000E+000  
  365.00  0.0000E+000  
  365.50  0.0000E+000  
  366.00  0.0000E+000  
  366.50  0.0000E+000  
  367.00  0.0000E+000  
  367.50  0.0000E+000  
  368.00  0.0000E+000  
  368.50  0.0000E+000  
  369.00  0.0000E+000  
  369.50  0.0000E+000  
  370.00  0.0000E+000  
  370.50  0.0000E+000  
  371.00  0.0000E+000  
  371.50  0.0000E+000  
  372.00  0.0000E+000  
  372.50  0.0000E+000  
  373.00  0.0000E+000  
  373.50  0.0000E+000  
  374.00  0.0000E+000  
  374.50  0.0000E+000  
  375.00  0.0000E+000  
  375.50  0.0000E+000  
  376.00  0.0000E+000  
  376.50  0.0000E+000  
  377.00  0.0000E+000  
  377.50  0.0000E+000  
  378.00  0.0000E+000  
  378.50  0.0000E+000  
  379.00  0.0000E+000  
  379.50  0.0000E+000  
  380.00  0.0000E+000  
  380.50  0.0000E+000  
  381.00  0.0000E+000  
  381.50  0.0000E+000  
  382.00  0.0000E+000  
  382.50  0.0000E+000  
  383.00  0.0000E+000  
  383.50  0.0000E+000  
  384.00  0.0000E+000  
  384.50  0.0000E+000  
  385.00  0.0000E+000  
  385.50  0.0000E+000  
  386.00  0.0000E+000  
  386.50  0.0000E+000  
  387.00  0.0000E+000  
  387.50  0.0000E+000  
  388.00  0.0000E+000  
  388.50  0.0000E+000  
  389.00  0.0000E+000  
  389.50  7.3689E-005  
  390.00  3.8326E-004  
  390.50  3.1609E-004  
  391.00  1.5180E-005  
  391.50  0.0000E+000  
  392.00  0.0000E+000  
  392.50  0.0000E+000  
  393.00  0.0000E+000  
  393.50  0.0000E+000  
  394.00  0.0000E+000  
  394.50  0.0000E+000  
  395.00  0.0000E+000  
  395.50  0.0000E+000  
  396.00  0.0000E+000  
  396.50  0.0000E+000  
  397.00  0.0000E+000  
  397.50  0.0000E+000  
  398.00  0.0000E+000  
  398.50  0.0000E+000  
  399.00  0.0000E+000  
  399.50  0.0000E+000  
  400.00  0.0000E+000  
  400.50  0.0000E+000  
  401.00  0.0000E+000  
  401.50  0.0000E+000  
  402.00  0.0000E+000  
  402.50  0.0000E+000  
  403.00  0.0000E+000  
  403.50  0.0000E+000  
  404.00  0.0000E+000  
  404.50  0.0000E+000  
  405.00  0.0000E+000  
  405.50  0.0000E+000  
  406.00  0.0000E+000  
  406.50  0.0000E+000  
  407.00  0.0000E+000  
  407.50  0.0000E+000  
  408.00  0.0000E+000  
  408.50  0.0000E+000  
  409.00  0.0000E+000  
  409.50  0.0000E+000  
  410.00  0.0000E+000  
  410.50  0.0000E+000  
  411.00  0.0000E+000  
  411.50  0.0000E+000  
  412.00  0.0000E+000  
  412.50  0.0000E+000  
  413.00  0.0000E+000  
  413.50  0.0000E+000  
  414.00  0.0000E+000  
  414.50  0.0000E+000  
  415.00  0.0000E+000  
  415.50  0.0000E+000  
  416.00  0.0000E+000  
  416.50  0.0000E+000  
  417.00  0.0000E+000  
  417.50  0.0000E+000  
  418.00  0.0000E+000  
  418.50  0.0000E+000  
  419.00  0.0000E+000  
  419.50  0.0000E+000  
  420.00  0.0000E+000  
  420.50  0.0000E+000  
  421.00  0.0000E+000  
  421.50  9.1167E-005  
  422.00  4.4640E-004  
  422.50  5.1030E-004  
  423.00  3.5821E-004  
  423.50  1.9294E-005  
  424.00  0.0000E+000  
  424.50  0.0000E+000  
  425.00  0.0000E+000  
  425.50  0.0000E+000  
  426.00  5.2215E-005  
  426.50  2.9624E-004  
  427.00  4.9207E-004  
  427.50  5.1745E-004  
  428.00  2.2612E-004  
  428.50  2.0369E-004  
  429.00  3.0722E-004  
  429.50  3.0289E-004  
  430.00  1.2286E-004  
  430.50  9.8636E-005  
  431.00  3.1336E-004  
  431.50  4.9300E-004  
  432.00  5.6783E-004  
  432.50  3.7561E-004  
  433.00  3.1012E-004  
  433.50  7.8503E-005  
  434.00  0.0000E+000  
  434.50  1.0855E-005  
  435.00  1.4358E-004  
  435.50  3.8217E-004  
  436.00  6.7280E-004  
  436.50  7.0777E-004  
  437.00  7.8246E-004  
  437.50  7.4388E-004  
  438.00  8.1956E-004  
  438.50  6.5644E-004  
  439.00  5.3510E-004  
  439.50  4.4307E-004  
  440.00  4.9811E-004  
  440.50  7.3217E-004  
  441.00  9.7167E-004  
  441.50  1.0658E-003  
  442.00  1.0121E-003  
  442.50  9.5640E-004  
  443.00  9.6377E-004  
  443.50  9.3436E-004  
  444.00  9.4378E-004  
  444.50  7.4740E-004  
  445.00  8.6491E-004  
  445.50  9.2326E-004  
  446.00  1.0856E-003  
  446.50  9.6300E-004  
  447.00  6.8997E-004  
  447.50  4.8142E-004  
  448.00  3.9228E-004  
  448.50  3.9279E-004  
  449.00  4.2281E-004  
  449.50  3.8101E-004  
  450.00  4.3159E-004  
  450.50  4.3177E-004  
  451.00  2.5885E-004  
  451.50  1.2788E-004  
  452.00  1.9690E-004  
  452.50  3.0517E-004  
  453.00  4.7878E-004  
  453.50  2.5862E-004  
  454.00  0.0000E+000  
  454.50  0.0000E+000  
  455.00  0.0000E+000  
  455.50  0.0000E+000  
  456.00  0.0000E+000  
  456.50  0.0000E+000  
  457.00  0.0000E+000  
  457.50  0.0000E+000  
  458.00  0.0000E+000  
  458.50  0.0000E+000  
  459.00  0.0000E+000  
  459.50  0.0000E+000  
  460.00  7.3978E-006  
  460.50  0.0000E+000  
  461.00  0.0000E+000  
  461.50  0.0000E+000  
  462.00  0.0000E+000  
  462.50  0.0000E+000  
  463.00  0.0000E+000  
  463.50  1.2435E-004  
  464.00  4.2170E-004  
  464.50  5.4994E-004  
  465.00  6.0029E-004  
  465.50  4.9905E-004  
  466.00  5.8439E-005  
  466.50  0.0000E+000  
  467.00  0.0000E+000  
  467.50  0.0000E+000  
  468.00  0.0000E+000  
  468.50  0.0000E+000  
  469.00  0.0000E+000  
  469.50  0.0000E+000  
  470.00  0.0000E+000  
  470.50  0.0000E+000  
  471.00  0.0000E+000  
  471.50  0.0000E+000  
  472.00  5.7532E-005  
  472.50  1.6388E-005  
  473.00  0.0000E+000  
  473.50  0.0000E+000  
  474.00  0.0000E+000  
  474.50  0.0000E+000  
  475.00  0.0000E+000  
  475.50  0.0000E+000  
  476.00  0.0000E+000  
  476.50  0.0000E+000  
  477.00  0.0000E+000  
  477.50  0.0000E+000  
  478.00  0.0000E+000  
  478.50  2.5558E-007  
  479.00  2.0932E-006  
  479.50  2.0094E-005  
  480.00  5.0840E-005  
  480.50  7.3509E-006  
  481.00  0.0000E+000  
  481.50  0.0000E+000  
  482.00  1.6445E-005  
  482.50  1.3308E-004  
  483.00  2.6662E-004  
  483.50  2.6739E-004  
  484.00  2.2271E-004  
  484.50  1.1902E-004  
  485.00  2.2719E-006  
  485.50  1.6667E-005  
  486.00  1.0066E-004  
  486.50  9.4708E-005  
  487.00  3.9199E-005  
  487.50  0.0000E+000  
  488.00  0.0000E+000  
  488.50  1.4619E-006  
  489.00  1.1807E-004  
  489.50  3.9728E-004  
  490.00  4.8608E-004  
  490.50  5.0584E-004  
  491.00  4.8820E-004  
  491.50  4.8513E-004  
  492.00  3.3872E-004  
  492.50  2.2143E-004  
  493.00  2.2202E-004  
  493.50  2.9243E-004  
  494.00  3.9238E-004  
  494.50  4.3410E-004  
  495.00  4.6084E-004  
  495.50  5.2911E-004  
  496.00  5.7822E-004  
  496.50  7.6583E-004  
  497.00  9.8165E-004  
  497.50  1.2146E-003  
  498.00  1.3138E-003  
  498.50  1.2202E-003  
  499.00  1.1300E-003  
  499.50  1.0918E-003  
  500.00  1.2152E-003  
  500.50  1.3824E-003  
  501.00  1.5327E-003  
  501.50  1.6249E-003  
  502.00  1.7376E-003  
  502.50  1.8887E-003  
  503.00  1.9955E-003  
  503.50  2.0304E-003  
  504.00  2.0198E-003  
  504.50  2.1353E-003  
  505.00  2.3289E-003  
  505.50  2.4888E-003  
  506.00  2.6044E-003  
  506.50  2.6053E-003  
  507.00  2.7457E-003  
  507.50  2.8694E-003  
  508.00  3.1264E-003  
  508.50  3.3584E-003  
  509.00  3.6173E-003  
  509.50  3.6824E-003  
  510.00  3.7128E-003  
  510.50  3.7913E-003  
  511.00  3.9456E-003  
  511.50  4.1907E-003  
  512.00  4.3499E-003  
  512.50  4.4382E-003  
  513.00  4.5554E-003  
  513.50  4.6651E-003  
  514.00  4.8472E-003  
  514.50  4.9006E-003  
  515.00  4.8726E-003  
  515.50  5.0026E-003  
  516.00  5.2032E-003  
  516.50  5.4139E-003  
  517.00  5.6327E-003  
  517.50  5.6613E-003  
  518.00  5.7664E-003  
  518.50  5.9306E-003  
  519.00  6.1197E-003  
  519.50  6.3755E-003  
  520.00  6.5634E-003  
  520.50  6.6682E-003  
  521.00  6.8152E-003  
  521.50  7.0508E-003  
  522.00  7.2050E-003  
  522.50  7.2853E-003  
  523.00  7.2194E-003  
  523.50  7.3096E-003  
  524.00  7.4872E-003  
  524.50  7.6594E-003  
  525.00  7.8093E-003  
  525.50  7.9204E-003  
  526.00  7.9604E-003  
  526.50  7.9981E-003  
  527.00  8.1514E-003  
  527.50  8.4289E-003  
  528.00  8.8068E-003  
  528.50  9.0468E-003  
  529.00  9.0946E-003  
  529.50  9.1086E-003  
  530.00  9.1477E-003  
  530.50  9.2436E-003  
  531.00  9.5286E-003  
  531.50  9.5843E-003  
  532.00  9.6029E-003  
  532.50  9.5027E-003  
  533.00  9.5317E-003  
  533.50  9.6711E-003  
  534.00  9.8713E-003  
  534.50  1.0067E-002  
  535.00  1.0214E-002  
  535.50  1.0346E-002  
  536.00  1.0401E-002  
  536.50  1.0475E-002  
  537.00  1.0599E-002  
  537.50  1.0605E-002  
  538.00  1.0640E-002  
  538.50  1.0737E-002  
  539.00  1.0945E-002  
  539.50  1.1332E-002  
  540.00  1.1635E-002  
  540.50  1.1903E-002  
  541.00  1.2081E-002  
  541.50  1.2143E-002  
  542.00  1.2236E-002  
  542.50  1.2358E-002  
  543.00  1.2522E-002  
  543.50  1.2683E-002  
  544.00  1.2791E-002  
  544.50  1.2985E-002  
  545.00  1.3277E-002  
  545.50  1.3571E-002  
  546.00  1.3646E-002  
  546.50  1.3586E-002  
  547.00  1.3693E-002  
  547.50  1.3803E-002  
  548.00  1.4114E-002  
  548.50  1.4383E-002  
  549.00  1.4722E-002  
  549.50  1.4995E-002  
  550.00  1.5030E-002  
  550.50  1.5070E-002  
  551.00  1.5251E-002  
  551.50  1.5506E-002  
  552.00  1.5891E-002  
  552.50  1.6067E-002  
  553.00  1.6344E-002  
  553.50  1.6489E-002  
  554.00  1.6763E-002  
  554.50  1.6792E-002  
  555.00  1.6933E-002  
  555.50  1.7140E-002  
  556.00  1.7383E-002  
  556.50  1.7757E-002  
  557.00  1.8085E-002  
  557.50  1.8449E-002  
  558.00  1.8673E-002  
  558.50  1.8847E-002  
  559.00  1.9114E-002  
  559.50  1.9484E-002  
  560.00  1.9947E-002  
  560.50  2.0365E-002  
  561.00  2.0826E-002  
  561.50  2.1282E-002  
  562.00  2.1474E-002  
  562.50  2.1842E-002  
  563.00  2.2135E-002  
  563.50  2.2646E-002  
  564.00  2.3127E-002  
  564.50  2.3523E-002  
  565.00  2.3945E-002  
  565.50  2.4268E-002  
  566.00  2.4597E-002  
  566.50  2.4787E-002  
  567.00  2.5106E-002  
  567.50  2.5673E-002  
  568.00  2.6320E-002  
  568.50  2.6838E-002  
  569.00  2.7193E-002  
  569.50  2.7545E-002  
  570.00  2.8130E-002  
  570.50  2.8651E-002  
  571.00  2.9277E-002  
  571.50  2.9845E-002  
  572.00  3.0412E-002  
  572.50  3.0892E-002  
  573.00  3.1454E-002  
  573.50  3.2126E-002  
  574.00  3.2783E-002  
  574.50  3.3447E-002  
  575.00  3.4008E-002  
  575.50  3.4578E-002  
  576.00  3.5095E-002  
  576.50  3.5731E-002  
  577.00  3.6548E-002  
  577.50  3.7402E-002  
  578.00  3.8107E-002  
  578.50  3.8707E-002  
  579.00  3.9115E-002  
  579.50  3.9527E-002  
  580.00  4.0136E-002  
  580.50  4.0969E-002  
  581.00  4.1882E-002  
  581.50  4.2549E-002  
  582.00  4.3281E-002  
  582.50  4.4064E-002  
  583.00  4.5093E-002  
  583.50  4.5946E-002  
  584.00  4.6784E-002  
  584.50  4.7242E-002  
  585.00  4.7782E-002  
  585.50  4.8494E-002  
  586.00  4.9532E-002  
  586.50  5.0502E-002  
  587.00  5.1297E-002  
  587.50  5.1948E-002  
  588.00  5.2506E-002  
  588.50  5.3352E-002  
  589.00  5.4262E-002  
  589.50  5.5552E-002  
  590.00  5.6248E-002  
  590.50  5.7023E-002  
  591.00  5.7752E-002  
  591.50  5.8866E-002  
  592.00  5.9699E-002  
  592.50  6.0156E-002  
  593.00  6.0721E-002  
  593.50  6.1685E-002  
  594.00  6.2863E-002  
  594.50  6.3707E-002  
  595.00  6.4111E-002  
  595.50  6.4476E-002  
  596.00  6.5125E-002  
  596.50  6.6092E-002  
  597.00  6.7082E-002  
  597.50  6.7715E-002  
  598.00  6.8069E-002  
  598.50  6.8511E-002  
  599.00  6.9273E-002  
  599.50  7.0233E-002  
  600.00  7.1129E-002  
  600.50  7.1998E-002  
  601.00  7.2724E-002  
  601.50  7.3186E-002  
  602.00  7.3330E-002  
  602.50  7.3580E-002  
  603.00  7.4044E-002  
  603.50  7.4615E-002  
  604.00  7.5290E-002  
  604.50  7.5730E-002  
  605.00  7.6076E-002  
  605.50  7.6146E-002  
  606.00  7.6532E-002  
  606.50  7.7280E-002  
  607.00  7.8218E-002  
  607.50  7.8812E-002  
  608.00  7.9177E-002  
  608.50  7.9204E-002  
  609.00  7.9436E-002  
  609.50  7.9769E-002  
  610.00  8.0266E-002  
  610.50  8.0812E-002  
  611.00  8.1192E-002  
  611.50  8.1485E-002  
  612.00  8.1900E-002  
  612.50  8.2111E-002  
  613.00  8.2187E-002  
  613.50  8.2073E-002  
  614.00  8.2145E-002  
  614.50  8.2328E-002  
  615.00  8.2456E-002  
  615.50  8.2448E-002  
  616.00  8.2443E-002  
  616.50  8.2412E-002  
  617.00  8.2334E-002  
  617.50  8.2504E-002  
  618.00  8.2720E-002  
  618.50  8.2933E-002  
  619.00  8.2724E-002  
  619.50  8.2520E-002  
  620.00  8.2191E-002  
  620.50  8.1903E-002  
  621.00  8.1920E-002  
  621.50  8.1765E-002  
  622.00  8.1726E-002  
  622.50  8.1414E-002  
  623.00  8.1349E-002  
  623.50  8.1461E-002  
  624.00  8.1497E-002  
  624.50  8.1313E-002  
  625.00  8.1113E-002  
  625.50  8.0835E-002  
  626.00  8.0522E-002  
  626.50  8.0176E-002  
  627.00  7.9748E-002  
  627.50  7.9546E-002  
  628.00  7.9381E-002  
  628.50  7.9263E-002  
  629.00  7.8788E-002  
  629.50  7.8311E-002  
  630.00  7.8338E-002  
  630.50  7.8478E-002  
  631.00  7.8409E-002  
  631.50  7.7787E-002  
  632.00  7.7197E-002  
  632.50  7.6756E-002  
  633.00  7.6416E-002  
  633.50  7.6222E-002  
  634.00  7.6328E-002  
  634.50  7.6230E-002  
  635.00  7.5537E-002  
  635.50  7.4233E-002  
  636.00  7.3496E-002  
  636.50  7.3252E-002  
  637.00  7.3287E-002  
  637.50  7.3014E-002  
  638.00  7.2515E-002  
  638.50  7.1835E-002  
  639.00  7.1157E-002  
  639.50  7.0675E-002  
  640.00  7.0190E-002  
  640.50  6.9734E-002  
  641.00  6.9289E-002  
  641.50  6.8723E-002  
  642.00  6.8140E-002  
  642.50  6.7418E-002  
  643.00  6.6877E-002  
  643.50  6.6383E-002  
  644.00  6.5997E-002  
  644.50  6.5744E-002  
  645.00  6.5396E-002  
  645.50  6.4843E-002  
  646.00  6.4430E-002  
  646.50  6.3983E-002  
  647.00  6.3822E-002  
  647.50  6.3524E-002  
  648.00  6.3102E-002  
  648.50  6.2091E-002  
  649.00  6.1087E-002  
  649.50  6.0485E-002  
  650.00  6.0466E-002  
  650.50  6.0506E-002  
  651.00  6.0095E-002  
  651.50  5.9305E-002  
  652.00  5.8598E-002  
  652.50  5.7822E-002  
  653.00  5.7186E-002  
  653.50  5.6512E-002  
  654.00  5.6074E-002  
  654.50  5.5475E-002  
  655.00  5.4520E-002  
  655.50  5.3789E-002  
  656.00  5.3281E-002  
  656.50  5.3038E-002  
  657.00  5.2459E-002  
  657.50  5.2077E-002  
  658.00  5.1569E-002  
  658.50  5.0820E-002  
  659.00  5.0086E-002  
  659.50  4.9699E-002  
  660.00  4.9574E-002  
  660.50  4.9106E-002  
  661.00  4.8186E-002  
  661.50  4.7441E-002  
  662.00  4.6889E-002  
  662.50  4.6848E-002  
  663.00  4.6401E-002  
  663.50  4.5618E-002  
  664.00  4.4433E-002  
  664.50  4.3589E-002  
  665.00  4.2926E-002  
  665.50  4.2576E-002  
  666.00  4.2198E-002  
  666.50  4.1759E-002  
  667.00  4.0922E-002  
  667.50  4.0122E-002  
  668.00  3.9496E-002  
  668.50  3.9392E-002  
  669.00  3.9219E-002  
  669.50  3.8916E-002  
  670.00  3.8380E-002  
  670.50  3.7806E-002  
  671.00  3.7414E-002  
  671.50  3.6893E-002  
  672.00  3.6613E-002  
  672.50  3.6099E-002  
  673.00  3.5650E-002  
  673.50  3.5198E-002  
  674.00  3.4573E-002  
  674.50  3.4140E-002  
  675.00  3.3776E-002  
  675.50  3.3585E-002  
  676.00  3.3228E-002  
  676.50  3.2577E-002  
  677.00  3.2022E-002  
  677.50  3.1554E-002  
  678.00  3.1169E-002  
  678.50  3.0655E-002  
  679.00  3.0192E-002  
  679.50  2.9800E-002  
  680.00  2.9650E-002  
  680.50  2.9148E-002  
  681.00  2.8567E-002  
