
# From lspdd.org
# 
# Name: LED-Lot3-L4 QCPassed A19 -
# Indice spectral Valeur 
# MSI 0.06 
# SLI 0.19 
# IPI 0.83 
# Pourcentage de bleu 2.3 
# Caractéristique Valeur 
# CCT calculée (K) 1515 
# CCT du fabricant (K) 1500 
# Tension (V) 100 
# Puissance (W) 7.0 
# Efficacité lumineuse (Lum/W) ND 
#
# Image: '/app/system/img_1s/2799/medium_image1.JPG?1633620770'
# 

  273.00  0.0000E+000  
  273.50  0.0000E+000  
  274.00  0.0000E+000  
  274.50  0.0000E+000  
  275.00  0.0000E+000  
  275.50  0.0000E+000  
  276.00  0.0000E+000  
  276.50  0.0000E+000  
  277.00  0.0000E+000  
  277.50  0.0000E+000  
  278.00  0.0000E+000  
  278.50  0.0000E+000  
  279.00  0.0000E+000  
  279.50  0.0000E+000  
  280.00  0.0000E+000  
  280.50  0.0000E+000  
  281.00  0.0000E+000  
  281.50  0.0000E+000  
  282.00  0.0000E+000  
  282.50  0.0000E+000  
  283.00  0.0000E+000  
  283.50  0.0000E+000  
  284.00  0.0000E+000  
  284.50  0.0000E+000  
  285.00  0.0000E+000  
  285.50  0.0000E+000  
  286.00  0.0000E+000  
  286.50  0.0000E+000  
  287.00  0.0000E+000  
  287.50  0.0000E+000  
  288.00  0.0000E+000  
  288.50  0.0000E+000  
  289.00  0.0000E+000  
  289.50  0.0000E+000  
  290.00  0.0000E+000  
  290.50  0.0000E+000  
  291.00  0.0000E+000  
  291.50  0.0000E+000  
  292.00  0.0000E+000  
  292.50  0.0000E+000  
  293.00  0.0000E+000  
  293.50  0.0000E+000  
  294.00  0.0000E+000  
  294.50  0.0000E+000  
  295.00  0.0000E+000  
  295.50  0.0000E+000  
  296.00  0.0000E+000  
  296.50  0.0000E+000  
  297.00  0.0000E+000  
  297.50  0.0000E+000  
  298.00  0.0000E+000  
  298.50  0.0000E+000  
  299.00  0.0000E+000  
  299.50  0.0000E+000  
  300.00  0.0000E+000  
  300.50  9.5535E-006  
  301.00  2.8520E-005  
  301.50  8.6310E-005  
  302.00  3.2959E-005  
  302.50  0.0000E+000  
  303.00  0.0000E+000  
  303.50  0.0000E+000  
  304.00  2.4766E-005  
  304.50  9.8392E-005  
  305.00  0.0000E+000  
  305.50  0.0000E+000  
  306.00  0.0000E+000  
  306.50  0.0000E+000  
  307.00  0.0000E+000  
  307.50  0.0000E+000  
  308.00  0.0000E+000  
  308.50  0.0000E+000  
  309.00  0.0000E+000  
  309.50  9.2631E-005  
  310.00  4.7683E-004  
  310.50  5.7104E-004  
  311.00  3.3223E-004  
  311.50  0.0000E+000  
  312.00  0.0000E+000  
  312.50  0.0000E+000  
  313.00  0.0000E+000  
  313.50  0.0000E+000  
  314.00  0.0000E+000  
  314.50  0.0000E+000  
  315.00  0.0000E+000  
  315.50  0.0000E+000  
  316.00  1.4237E-005  
  316.50  4.4981E-005  
  317.00  3.0695E-006  
  317.50  0.0000E+000  
  318.00  0.0000E+000  
  318.50  0.0000E+000  
  319.00  0.0000E+000  
  319.50  0.0000E+000  
  320.00  0.0000E+000  
  320.50  0.0000E+000  
  321.00  0.0000E+000  
  321.50  0.0000E+000  
  322.00  0.0000E+000  
  322.50  0.0000E+000  
  323.00  0.0000E+000  
  323.50  0.0000E+000  
  324.00  0.0000E+000  
  324.50  0.0000E+000  
  325.00  0.0000E+000  
  325.50  0.0000E+000  
  326.00  0.0000E+000  
  326.50  0.0000E+000  
  327.00  0.0000E+000  
  327.50  0.0000E+000  
  328.00  0.0000E+000  
  328.50  0.0000E+000  
  329.00  0.0000E+000  
  329.50  0.0000E+000  
  330.00  0.0000E+000  
  330.50  0.0000E+000  
  331.00  0.0000E+000  
  331.50  0.0000E+000  
  332.00  0.0000E+000  
  332.50  0.0000E+000  
  333.00  2.1887E-005  
  333.50  0.0000E+000  
  334.00  8.1328E-005  
  334.50  6.1467E-005  
  335.00  2.4252E-005  
  335.50  4.5127E-005  
  336.00  0.0000E+000  
  336.50  0.0000E+000  
  337.00  0.0000E+000  
  337.50  0.0000E+000  
  338.00  0.0000E+000  
  338.50  0.0000E+000  
  339.00  0.0000E+000  
  339.50  2.0566E-005  
  340.00  2.4762E-005  
  340.50  0.0000E+000  
  341.00  0.0000E+000  
  341.50  0.0000E+000  
  342.00  0.0000E+000  
  342.50  0.0000E+000  
  343.00  0.0000E+000  
  343.50  0.0000E+000  
  344.00  0.0000E+000  
  344.50  0.0000E+000  
  345.00  0.0000E+000  
  345.50  0.0000E+000  
  346.00  0.0000E+000  
  346.50  0.0000E+000  
  347.00  0.0000E+000  
  347.50  0.0000E+000  
  348.00  0.0000E+000  
  348.50  0.0000E+000  
  349.00  0.0000E+000  
  349.50  0.0000E+000  
  350.00  0.0000E+000  
  350.50  0.0000E+000  
  351.00  0.0000E+000  
  351.50  0.0000E+000  
  352.00  0.0000E+000  
  352.50  0.0000E+000  
  353.00  0.0000E+000  
  353.50  2.2464E-004  
  354.00  6.1694E-004  
  354.50  4.2388E-004  
  355.00  5.7986E-005  
  355.50  0.0000E+000  
  356.00  0.0000E+000  
  356.50  0.0000E+000  
  357.00  0.0000E+000  
  357.50  0.0000E+000  
  358.00  0.0000E+000  
  358.50  0.0000E+000  
  359.00  0.0000E+000  
  359.50  0.0000E+000  
  360.00  0.0000E+000  
  360.50  0.0000E+000  
  361.00  0.0000E+000  
  361.50  0.0000E+000  
  362.00  0.0000E+000  
  362.50  0.0000E+000  
  363.00  0.0000E+000  
  363.50  0.0000E+000  
  364.00  0.0000E+000  
  364.50  0.0000E+000  
  365.00  0.0000E+000  
  365.50  0.0000E+000  
  366.00  0.0000E+000  
  366.50  0.0000E+000  
  367.00  0.0000E+000  
  367.50  0.0000E+000  
  368.00  0.0000E+000  
  368.50  0.0000E+000  
  369.00  0.0000E+000  
  369.50  0.0000E+000  
  370.00  0.0000E+000  
  370.50  0.0000E+000  
  371.00  0.0000E+000  
  371.50  0.0000E+000  
  372.00  0.0000E+000  
  372.50  0.0000E+000  
  373.00  0.0000E+000  
  373.50  0.0000E+000  
  374.00  0.0000E+000  
  374.50  0.0000E+000  
  375.00  0.0000E+000  
  375.50  0.0000E+000  
  376.00  0.0000E+000  
  376.50  0.0000E+000  
  377.00  0.0000E+000  
  377.50  0.0000E+000  
  378.00  0.0000E+000  
  378.50  0.0000E+000  
  379.00  0.0000E+000  
  379.50  0.0000E+000  
  380.00  0.0000E+000  
  380.50  0.0000E+000  
  381.00  0.0000E+000  
  381.50  0.0000E+000  
  382.00  0.0000E+000  
  382.50  0.0000E+000  
  383.00  0.0000E+000  
  383.50  0.0000E+000  
  384.00  0.0000E+000  
  384.50  0.0000E+000  
  385.00  0.0000E+000  
  385.50  0.0000E+000  
  386.00  0.0000E+000  
  386.50  0.0000E+000  
  387.00  0.0000E+000  
  387.50  0.0000E+000  
  388.00  0.0000E+000  
  388.50  0.0000E+000  
  389.00  0.0000E+000  
  389.50  0.0000E+000  
  390.00  0.0000E+000  
  390.50  6.5382E-005  
  391.00  0.0000E+000  
  391.50  0.0000E+000  
  392.00  0.0000E+000  
  392.50  0.0000E+000  
  393.00  0.0000E+000  
  393.50  0.0000E+000  
  394.00  0.0000E+000  
  394.50  0.0000E+000  
  395.00  0.0000E+000  
  395.50  0.0000E+000  
  396.00  0.0000E+000  
  396.50  0.0000E+000  
  397.00  0.0000E+000  
  397.50  0.0000E+000  
  398.00  0.0000E+000  
  398.50  0.0000E+000  
  399.00  0.0000E+000  
  399.50  0.0000E+000  
  400.00  0.0000E+000  
  400.50  0.0000E+000  
  401.00  0.0000E+000  
  401.50  0.0000E+000  
  402.00  0.0000E+000  
  402.50  0.0000E+000  
  403.00  0.0000E+000  
  403.50  0.0000E+000  
  404.00  0.0000E+000  
  404.50  0.0000E+000  
  405.00  9.1191E-005  
  405.50  1.1934E-004  
  406.00  3.8533E-005  
  406.50  0.0000E+000  
  407.00  0.0000E+000  
  407.50  0.0000E+000  
  408.00  0.0000E+000  
  408.50  3.1133E-006  
  409.00  1.2001E-005  
  409.50  2.0757E-005  
  410.00  0.0000E+000  
  410.50  0.0000E+000  
  411.00  0.0000E+000  
  411.50  0.0000E+000  
  412.00  0.0000E+000  
  412.50  0.0000E+000  
  413.00  0.0000E+000  
  413.50  0.0000E+000  
  414.00  1.8740E-005  
  414.50  3.0075E-004  
  415.00  3.8749E-004  
  415.50  3.1322E-004  
  416.00  7.3781E-005  
  416.50  2.3324E-005  
  417.00  1.2758E-005  
  417.50  0.0000E+000  
  418.00  0.0000E+000  
  418.50  0.0000E+000  
  419.00  0.0000E+000  
  419.50  0.0000E+000  
  420.00  1.0870E-005  
  420.50  1.3612E-004  
  421.00  3.2549E-004  
  421.50  4.6341E-004  
  422.00  6.2438E-004  
  422.50  7.8674E-004  
  423.00  7.1378E-004  
  423.50  3.4741E-004  
  424.00  7.3782E-005  
  424.50  0.0000E+000  
  425.00  1.2016E-004  
  425.50  1.7804E-004  
  426.00  3.1482E-004  
  426.50  4.2654E-004  
  427.00  3.8533E-004  
  427.50  4.2659E-004  
  428.00  4.8796E-004  
  428.50  4.6259E-004  
  429.00  5.9595E-004  
  429.50  6.4217E-004  
  430.00  5.7831E-004  
  430.50  5.4291E-004  
  431.00  7.5974E-004  
  431.50  9.3299E-004  
  432.00  8.9002E-004  
  432.50  7.9323E-004  
  433.00  6.6551E-004  
  433.50  7.5486E-004  
  434.00  8.9351E-004  
  434.50  1.0483E-003  
  435.00  1.1711E-003  
  435.50  1.2112E-003  
  436.00  1.2364E-003  
  436.50  1.1034E-003  
  437.00  1.0341E-003  
  437.50  8.9075E-004  
  438.00  9.0694E-004  
  438.50  6.7070E-004  
  439.00  5.0837E-004  
  439.50  4.0185E-004  
  440.00  3.5270E-004  
  440.50  6.0093E-004  
  441.00  9.4282E-004  
  441.50  1.0877E-003  
  442.00  1.1516E-003  
  442.50  8.6769E-004  
  443.00  7.9102E-004  
  443.50  7.6406E-004  
  444.00  9.1697E-004  
  444.50  9.4657E-004  
  445.00  7.1995E-004  
  445.50  7.4280E-004  
  446.00  7.9890E-004  
  446.50  9.6240E-004  
  447.00  1.0080E-003  
  447.50  8.8160E-004  
  448.00  7.2970E-004  
  448.50  6.1818E-004  
  449.00  5.6101E-004  
  449.50  4.5610E-004  
  450.00  4.7583E-004  
  450.50  2.9196E-004  
  451.00  4.4140E-005  
  451.50  2.4465E-004  
  452.00  3.6400E-004  
  452.50  4.3371E-004  
  453.00  3.4930E-004  
  453.50  1.2502E-004  
  454.00  0.0000E+000  
  454.50  0.0000E+000  
  455.00  0.0000E+000  
  455.50  0.0000E+000  
  456.00  0.0000E+000  
  456.50  0.0000E+000  
  457.00  0.0000E+000  
  457.50  0.0000E+000  
  458.00  0.0000E+000  
  458.50  0.0000E+000  
  459.00  0.0000E+000  
  459.50  0.0000E+000  
  460.00  1.5433E-004  
  460.50  2.7021E-004  
  461.00  2.3845E-004  
  461.50  1.1668E-004  
  462.00  0.0000E+000  
  462.50  0.0000E+000  
  463.00  3.5095E-005  
  463.50  1.7039E-004  
  464.00  4.6423E-004  
  464.50  5.3889E-004  
  465.00  6.5825E-004  
  465.50  8.0575E-004  
  466.00  5.3481E-004  
  466.50  3.7242E-004  
  467.00  4.6938E-005  
  467.50  0.0000E+000  
  468.00  0.0000E+000  
  468.50  5.7130E-006  
  469.00  1.1274E-004  
  469.50  3.1884E-004  
  470.00  3.1991E-004  
  470.50  2.5030E-004  
  471.00  1.9131E-004  
  471.50  1.1459E-004  
  472.00  5.2264E-005  
  472.50  6.4796E-006  
  473.00  1.8403E-005  
  473.50  1.8318E-004  
  474.00  2.8278E-004  
  474.50  1.6210E-004  
  475.00  5.4725E-005  
  475.50  0.0000E+000  
  476.00  0.0000E+000  
  476.50  0.0000E+000  
  477.00  0.0000E+000  
  477.50  0.0000E+000  
  478.00  9.2769E-006  
  478.50  6.2513E-005  
  479.00  4.7086E-005  
  479.50  1.4067E-005  
  480.00  1.3252E-004  
  480.50  1.4049E-004  
  481.00  2.8660E-004  
  481.50  3.2896E-004  
  482.00  4.5278E-004  
  482.50  5.0691E-004  
  483.00  4.4690E-004  
  483.50  4.0966E-004  
  484.00  3.2214E-004  
  484.50  2.7501E-004  
  485.00  9.5419E-005  
  485.50  0.0000E+000  
  486.00  3.8099E-006  
  486.50  1.0275E-004  
  487.00  1.0416E-004  
  487.50  9.4085E-005  
  488.00  3.6094E-005  
  488.50  1.1621E-004  
  489.00  2.0839E-004  
  489.50  3.0686E-004  
  490.00  4.2388E-004  
  490.50  4.5821E-004  
  491.00  4.8935E-004  
  491.50  3.7684E-004  
  492.00  3.0560E-004  
  492.50  2.5313E-004  
  493.00  4.5151E-004  
  493.50  6.3707E-004  
  494.00  8.2867E-004  
  494.50  8.6641E-004  
  495.00  8.5121E-004  
  495.50  8.1742E-004  
  496.00  8.6508E-004  
  496.50  1.0692E-003  
  497.00  1.3161E-003  
  497.50  1.4316E-003  
  498.00  1.4048E-003  
  498.50  1.1943E-003  
  499.00  1.0697E-003  
  499.50  1.1082E-003  
  500.00  1.3094E-003  
  500.50  1.6074E-003  
  501.00  1.8050E-003  
  501.50  1.7766E-003  
  502.00  1.7342E-003  
  502.50  1.8422E-003  
  503.00  2.0326E-003  
  503.50  2.2611E-003  
  504.00  2.3662E-003  
  504.50  2.5291E-003  
  505.00  2.7357E-003  
  505.50  2.8523E-003  
  506.00  2.8257E-003  
  506.50  2.7069E-003  
  507.00  2.7884E-003  
  507.50  2.9902E-003  
  508.00  3.3094E-003  
  508.50  3.5831E-003  
  509.00  3.7294E-003  
  509.50  3.7721E-003  
  510.00  3.7632E-003  
  510.50  3.9470E-003  
  511.00  4.1648E-003  
  511.50  4.4851E-003  
  512.00  4.5840E-003  
  512.50  4.6556E-003  
  513.00  4.7267E-003  
  513.50  4.9114E-003  
  514.00  5.1751E-003  
  514.50  5.3725E-003  
  515.00  5.3999E-003  
  515.50  5.5785E-003  
  516.00  5.6687E-003  
  516.50  5.7892E-003  
  517.00  5.7860E-003  
  517.50  5.7406E-003  
  518.00  5.7767E-003  
  518.50  5.9545E-003  
  519.00  6.0493E-003  
  519.50  6.2799E-003  
  520.00  6.4882E-003  
  520.50  6.7492E-003  
  521.00  6.9593E-003  
  521.50  7.1406E-003  
  522.00  7.1891E-003  
  522.50  7.2346E-003  
  523.00  7.2281E-003  
  523.50  7.4505E-003  
  524.00  7.6276E-003  
  524.50  7.7870E-003  
  525.00  7.8988E-003  
  525.50  7.9315E-003  
  526.00  8.0526E-003  
  526.50  8.1195E-003  
  527.00  8.3400E-003  
  527.50  8.6276E-003  
  528.00  8.9077E-003  
  528.50  9.0944E-003  
  529.00  9.3285E-003  
  529.50  9.5169E-003  
  530.00  9.7113E-003  
  530.50  9.7856E-003  
  531.00  9.8905E-003  
  531.50  9.9767E-003  
  532.00  1.0025E-002  
  532.50  1.0145E-002  
  533.00  1.0320E-002  
  533.50  1.0453E-002  
  534.00  1.0594E-002  
  534.50  1.0650E-002  
  535.00  1.0658E-002  
  535.50  1.0702E-002  
  536.00  1.0590E-002  
  536.50  1.0636E-002  
  537.00  1.0804E-002  
  537.50  1.0916E-002  
  538.00  1.1031E-002  
  538.50  1.1147E-002  
  539.00  1.1302E-002  
  539.50  1.1589E-002  
  540.00  1.1807E-002  
  540.50  1.2073E-002  
  541.00  1.2311E-002  
  541.50  1.2548E-002  
  542.00  1.2641E-002  
  542.50  1.2653E-002  
  543.00  1.2644E-002  
  543.50  1.2758E-002  
  544.00  1.2854E-002  
  544.50  1.3009E-002  
  545.00  1.3094E-002  
  545.50  1.3229E-002  
  546.00  1.3537E-002  
  546.50  1.3792E-002  
  547.00  1.4167E-002  
  547.50  1.4372E-002  
  548.00  1.4634E-002  
  548.50  1.5003E-002  
  549.00  1.5249E-002  
  549.50  1.5506E-002  
  550.00  1.5424E-002  
  550.50  1.5314E-002  
  551.00  1.5332E-002  
  551.50  1.5518E-002  
  552.00  1.5972E-002  
  552.50  1.6304E-002  
  553.00  1.6619E-002  
  553.50  1.6912E-002  
  554.00  1.7215E-002  
  554.50  1.7298E-002  
  555.00  1.7426E-002  
  555.50  1.7539E-002  
  556.00  1.7663E-002  
  556.50  1.8025E-002  
  557.00  1.8333E-002  
  557.50  1.8657E-002  
  558.00  1.8881E-002  
  558.50  1.9249E-002  
  559.00  1.9659E-002  
  559.50  2.0062E-002  
  560.00  2.0420E-002  
  560.50  2.0835E-002  
  561.00  2.1241E-002  
  561.50  2.1708E-002  
  562.00  2.2033E-002  
  562.50  2.2581E-002  
  563.00  2.3004E-002  
  563.50  2.3339E-002  
  564.00  2.3501E-002  
  564.50  2.3739E-002  
  565.00  2.4161E-002  
  565.50  2.4803E-002  
  566.00  2.5324E-002  
  566.50  2.5748E-002  
  567.00  2.6069E-002  
  567.50  2.6533E-002  
  568.00  2.7075E-002  
  568.50  2.7657E-002  
  569.00  2.8125E-002  
  569.50  2.8541E-002  
  570.00  2.8899E-002  
  570.50  2.9409E-002  
  571.00  3.0092E-002  
  571.50  3.0595E-002  
  572.00  3.1157E-002  
  572.50  3.1540E-002  
  573.00  3.2272E-002  
  573.50  3.3074E-002  
  574.00  3.3783E-002  
  574.50  3.4391E-002  
  575.00  3.4819E-002  
  575.50  3.5320E-002  
  576.00  3.5909E-002  
  576.50  3.6682E-002  
  577.00  3.7459E-002  
  577.50  3.8365E-002  
  578.00  3.9015E-002  
  578.50  3.9594E-002  
  579.00  4.0013E-002  
  579.50  4.0510E-002  
  580.00  4.1261E-002  
  580.50  4.2024E-002  
  581.00  4.3009E-002  
  581.50  4.3667E-002  
  582.00  4.4341E-002  
  582.50  4.4997E-002  
  583.00  4.5938E-002  
  583.50  4.6980E-002  
  584.00  4.7792E-002  
  584.50  4.8520E-002  
  585.00  4.9321E-002  
  585.50  5.0195E-002  
  586.00  5.0947E-002  
  586.50  5.1687E-002  
  587.00  5.2727E-002  
  587.50  5.3842E-002  
  588.00  5.4614E-002  
  588.50  5.5048E-002  
  589.00  5.5546E-002  
  589.50  5.6286E-002  
  590.00  5.7135E-002  
  590.50  5.8039E-002  
  591.00  5.8947E-002  
  591.50  5.9800E-002  
  592.00  6.0520E-002  
  592.50  6.1130E-002  
  593.00  6.1943E-002  
  593.50  6.2804E-002  
  594.00  6.4043E-002  
  594.50  6.4994E-002  
  595.00  6.5772E-002  
  595.50  6.6328E-002  
  596.00  6.7343E-002  
  596.50  6.8307E-002  
  597.00  6.9066E-002  
  597.50  6.9432E-002  
  598.00  6.9889E-002  
  598.50  7.0610E-002  
  599.00  7.1631E-002  
  599.50  7.2662E-002  
  600.00  7.3296E-002  
  600.50  7.3732E-002  
  601.00  7.4106E-002  
  601.50  7.4536E-002  
  602.00  7.4992E-002  
  602.50  7.5613E-002  
  603.00  7.6428E-002  
  603.50  7.7077E-002  
  604.00  7.7667E-002  
  604.50  7.8222E-002  
  605.00  7.8807E-002  
  605.50  7.9187E-002  
  606.00  7.9525E-002  
  606.50  8.0032E-002  
  607.00  8.0514E-002  
  607.50  8.1007E-002  
  608.00  8.1398E-002  
  608.50  8.1628E-002  
  609.00  8.1837E-002  
  609.50  8.2280E-002  
  610.00  8.2928E-002  
  610.50  8.3393E-002  
  611.00  8.3492E-002  
  611.50  8.3551E-002  
  612.00  8.3771E-002  
  612.50  8.4061E-002  
  613.00  8.4180E-002  
  613.50  8.4292E-002  
  614.00  8.4685E-002  
  614.50  8.5169E-002  
  615.00  8.5101E-002  
  615.50  8.4760E-002  
  616.00  8.4255E-002  
  616.50  8.4417E-002  
  617.00  8.4494E-002  
  617.50  8.4578E-002  
  618.00  8.4700E-002  
  618.50  8.4886E-002  
  619.00  8.5085E-002  
  619.50  8.5205E-002  
  620.00  8.5070E-002  
  620.50  8.5133E-002  
  621.00  8.5140E-002  
  621.50  8.5020E-002  
  622.00  8.4762E-002  
  622.50  8.4359E-002  
  623.00  8.4026E-002  
  623.50  8.4004E-002  
  624.00  8.4106E-002  
  624.50  8.4369E-002  
  625.00  8.4163E-002  
  625.50  8.3540E-002  
  626.00  8.3127E-002  
  626.50  8.2850E-002  
  627.00  8.2597E-002  
  627.50  8.1909E-002  
  628.00  8.1584E-002  
  628.50  8.1599E-002  
  629.00  8.1499E-002  
  629.50  8.0903E-002  
  630.00  8.0117E-002  
  630.50  7.9931E-002  
  631.00  8.0041E-002  
  631.50  8.0274E-002  
  632.00  8.0006E-002  
  632.50  7.9465E-002  
  633.00  7.8770E-002  
  633.50  7.8332E-002  
  634.00  7.8064E-002  
  634.50  7.7927E-002  
  635.00  7.7160E-002  
  635.50  7.6131E-002  
  636.00  7.5529E-002  
  636.50  7.5371E-002  
  637.00  7.5200E-002  
  637.50  7.4386E-002  
  638.00  7.3766E-002  
  638.50  7.3427E-002  
  639.00  7.3098E-002  
  639.50  7.2712E-002  
  640.00  7.1842E-002  
  640.50  7.1372E-002  
  641.00  7.0938E-002  
  641.50  7.0787E-002  
  642.00  7.0696E-002  
  642.50  7.0245E-002  
  643.00  6.9622E-002  
  643.50  6.8616E-002  
  644.00  6.7965E-002  
  644.50  6.7443E-002  
  645.00  6.7167E-002  
  645.50  6.6719E-002  
  646.00  6.6597E-002  
  646.50  6.6617E-002  
  647.00  6.6312E-002  
  647.50  6.5453E-002  
  648.00  6.4219E-002  
  648.50  6.3433E-002  
  649.00  6.3264E-002  
  649.50  6.2894E-002  
  650.00  6.2535E-002  
  650.50  6.2038E-002  
  651.00  6.1577E-002  
  651.50  6.0748E-002  
  652.00  5.9989E-002  
  652.50  5.9395E-002  
  653.00  5.9090E-002  
  653.50  5.8424E-002  
  654.00  5.7728E-002  
  654.50  5.6906E-002  
  655.00  5.6396E-002  
  655.50  5.5930E-002  
  656.00  5.5319E-002  
  656.50  5.4507E-002  
  657.00  5.3602E-002  
  657.50  5.3275E-002  
  658.00  5.2761E-002  
  658.50  5.2185E-002  
  659.00  5.1513E-002  
  659.50  5.1255E-002  
  660.00  5.1010E-002  
  660.50  5.0626E-002  
  661.00  4.9968E-002  
  661.50  4.9217E-002  
  662.00  4.8240E-002  
  662.50  4.7823E-002  
  663.00  4.7851E-002  
  663.50  4.7632E-002  
  664.00  4.6751E-002  
  664.50  4.5511E-002  
  665.00  4.4869E-002  
  665.50  4.4338E-002  
  666.00  4.3701E-002  
  666.50  4.2915E-002  
  667.00  4.2209E-002  
  667.50  4.2063E-002  
  668.00  4.1892E-002  
  668.50  4.1653E-002  
  669.00  4.1331E-002  
  669.50  4.0586E-002  
  670.00  3.9958E-002  
  670.50  3.9034E-002  
  671.00  3.8451E-002  
  671.50  3.7835E-002  
  672.00  3.7667E-002  
  672.50  3.7138E-002  
  673.00  3.6643E-002  
  673.50  3.5936E-002  
  674.00  3.5570E-002  
  674.50  3.5327E-002  
  675.00  3.4662E-002  
  675.50  3.4353E-002  
  676.00  3.3725E-002  
  676.50  3.3002E-002  
  677.00  3.2367E-002  
  677.50  3.2086E-002  
  678.00  3.2058E-002  
  678.50  3.1921E-002  
  679.00  3.1663E-002  
  679.50  3.1295E-002  
  680.00  3.0508E-002  
  680.50  2.9756E-002  
  681.00  2.9173E-002  
